PE UV       SUBTECH     SPECTRUM    ASCII       PEDS        4.00        
   -1
d.Sample.asc
22/05/06
15:42:13.00
22/05/06
15:42:13.00
Administrator

200.000000
1
Lambda 1050
1050L1808311
PerkinElmer UV WinLab 6.4.0.973 / 2.02.11 Lambda 900 UV/VIS/NIR. May 23 2018 11:23:04

0
0
3350/servo 860.8/2
0
0
UV/VIS
1
1
1
CommonBeamDepol.RBeamAtt.SBeamAtt.60mm sphere
0
0
0
0
Program
Program
3350/servo 860.8/2
3350/0.2 860.8/0.2
3350/0.2 860.8/0.2
0
1.00
 
 
 
0
 
860.8
319.2
860.8
Front
100
on
S:100 R:100
 
0
0
0
 
0
 
 
 
0
 
 
0
0
0
0
0
 
 
 
 
0
0


0
0
#HDR
-1
-1
#GR
nm
%T
1.0
0.0
2000.000000
-1.000000
1801
8
406.496246
57.238950
#DATA
2000.000000	87.412051
1999.000000	87.463084
1998.000000	87.529498
1997.000000	87.496629
1996.000000	87.520477
1995.000000	87.416088
1994.000000	87.489295
1993.000000	87.499929
1992.000000	87.541554
1991.000000	87.550148
1990.000000	87.568013
1989.000000	87.570739
1988.000000	87.611683
1987.000000	87.563999
1986.000000	87.610773
1985.000000	87.543519
1984.000000	87.668316
1983.000000	87.584439
1982.000000	87.631476
1981.000000	87.621305
1980.000000	87.649640
1979.000000	87.690640
1978.000000	87.712834
1977.000000	87.668191
1976.000000	87.724162
1975.000000	87.728707
1974.000000	87.808759
1973.000000	87.769838
1972.000000	87.835238
1971.000000	87.814400
1970.000000	87.751472
1969.000000	87.796552
1968.000000	87.844260
1967.000000	87.842538
1966.000000	87.876164
1965.000000	87.860621
1964.000000	87.876436
1963.000000	87.908855
1962.000000	87.927952
1961.000000	87.895390
1960.000000	87.939877
1959.000000	87.967317
1958.000000	88.062123
1957.000000	87.987860
1956.000000	88.043865
1955.000000	88.083036
1954.000000	88.045118
1953.000000	88.082552
1952.000000	88.111398
1951.000000	88.113756
1950.000000	88.135053
1949.000000	88.138413
1948.000000	88.130808
1947.000000	88.166796
1946.000000	88.104078
1945.000000	88.121867
1944.000000	88.164798
1943.000000	88.139939
1942.000000	88.191152
1941.000000	88.190379
1940.000000	88.193185
1939.000000	88.195098
1938.000000	88.244211
1937.000000	88.224065
1936.000000	88.312267
1935.000000	88.260400
1934.000000	88.278982
1933.000000	88.304447
1932.000000	88.332461
1931.000000	88.366304
1930.000000	88.361102
1929.000000	88.345835
1928.000000	88.353620
1927.000000	88.382003
1926.000000	88.390563
1925.000000	88.386434
1924.000000	88.445834
1923.000000	88.418352
1922.000000	88.431969
1921.000000	88.440506
1920.000000	88.448764
1919.000000	88.413449
1918.000000	88.419038
1917.000000	88.458827
1916.000000	88.504524
1915.000000	88.519943
1914.000000	88.523264
1913.000000	88.473554
1912.000000	88.438756
1911.000000	88.468890
1910.000000	88.489029
1909.000000	88.425142
1908.000000	88.466156
1907.000000	88.443370
1906.000000	88.427449
1905.000000	88.401716
1904.000000	88.425013
1903.000000	88.365219
1902.000000	88.370490
1901.000000	88.375432
1900.000000	88.393801
1899.000000	88.400087
1898.000000	88.369403
1897.000000	88.329101
1896.000000	88.372672
1895.000000	88.372758
1894.000000	88.358066
1893.000000	88.349109
1892.000000	88.369594
1891.000000	88.366051
1890.000000	88.341994
1889.000000	88.333753
1888.000000	88.379552
1887.000000	88.429319
1886.000000	88.452737
1885.000000	88.451910
1884.000000	88.479007
1883.000000	88.453577
1882.000000	88.363174
1881.000000	88.356198
1880.000000	88.412912
1879.000000	88.440103
1878.000000	88.427383
1877.000000	88.420431
1876.000000	88.449773
1875.000000	88.401394
1874.000000	88.352816
1873.000000	88.348670
1872.000000	88.353170
1871.000000	88.338512
1870.000000	88.326502
1869.000000	88.357770
1868.000000	88.333490
1867.000000	88.282903
1866.000000	88.328255
1865.000000	88.336984
1864.000000	88.335119
1863.000000	88.389680
1862.000000	88.382420
1861.000000	88.358922
1860.000000	88.358928
1859.000000	88.358274
1858.000000	88.367098
1857.000000	88.380176
1856.000000	88.349498
1855.000000	88.347899
1854.000000	88.375725
1853.000000	88.389144
1852.000000	88.400361
1851.000000	88.415800
1850.000000	88.380005
1849.000000	88.340855
1848.000000	88.320334
1847.000000	88.332598
1846.000000	88.328590
1845.000000	88.343566
1844.000000	88.323622
1843.000000	88.278377
1842.000000	88.277920
1841.000000	88.291216
1840.000000	88.286661
1839.000000	88.279640
1838.000000	88.277190
1837.000000	88.286040
1836.000000	88.276990
1835.000000	88.257364
1834.000000	88.217193
1833.000000	88.212302
1832.000000	88.208755
1831.000000	88.217812
1830.000000	88.215584
1829.000000	88.210055
1828.000000	88.216754
1827.000000	88.235609
1826.000000	88.228812
1825.000000	88.227877
1824.000000	88.232482
1823.000000	88.221801
1822.000000	88.212552
1821.000000	88.210512
1820.000000	88.193994
1819.000000	88.134239
1818.000000	88.143650
1817.000000	88.157023
1816.000000	88.162477
1815.000000	88.175905
1814.000000	88.164190
1813.000000	88.160841
1812.000000	88.158606
1811.000000	88.156803
1810.000000	88.127956
1809.000000	88.121103
1808.000000	88.136113
1807.000000	88.128971
1806.000000	88.086939
1805.000000	88.076533
1804.000000	88.053958
1803.000000	88.082533
1802.000000	88.068302
1801.000000	88.062698
1800.000000	88.022065
1799.000000	88.065142
1798.000000	88.068140
1797.000000	88.041125
1796.000000	88.037469
1795.000000	88.027720
1794.000000	88.003631
1793.000000	88.014261
1792.000000	88.018313
1791.000000	88.013702
1790.000000	87.983125
1789.000000	87.955360
1788.000000	87.998985
1787.000000	87.982844
1786.000000	87.958001
1785.000000	87.958322
1784.000000	87.929019
1783.000000	87.907028
1782.000000	87.879004
1781.000000	87.878298
1780.000000	87.884951
1779.000000	87.862743
1778.000000	87.853527
1777.000000	87.866316
1776.000000	87.838031
1775.000000	87.836333
1774.000000	87.797468
1773.000000	87.843311
1772.000000	87.789587
1771.000000	87.820264
1770.000000	87.773281
1769.000000	87.768419
1768.000000	87.754743
1767.000000	87.767573
1766.000000	87.745373
1765.000000	87.730737
1764.000000	87.706016
1763.000000	87.736520
1762.000000	87.717916
1761.000000	87.707224
1760.000000	87.682934
1759.000000	87.681324
1758.000000	87.636271
1757.000000	87.657330
1756.000000	87.659639
1755.000000	87.647174
1754.000000	87.611570
1753.000000	87.632214
1752.000000	87.588736
1751.000000	87.570928
1750.000000	87.557287
1749.000000	87.564266
1748.000000	87.533446
1747.000000	87.545480
1746.000000	87.534565
1745.000000	87.538847
1744.000000	87.512680
1743.000000	87.522057
1742.000000	87.489919
1741.000000	87.494636
1740.000000	87.483052
1739.000000	87.460625
1738.000000	87.412334
1737.000000	87.443557
1736.000000	87.401600
1735.000000	87.376192
1734.000000	87.366311
1733.000000	87.357637
1732.000000	87.350929
1731.000000	87.323109
1730.000000	87.306748
1729.000000	87.320394
1728.000000	87.272917
1727.000000	87.271677
1726.000000	87.234403
1725.000000	87.274967
1724.000000	87.227815
1723.000000	87.241233
1722.000000	87.159910
1721.000000	87.193718
1720.000000	87.180635
1719.000000	87.186816
1718.000000	87.142473
1717.000000	87.173791
1716.000000	87.091385
1715.000000	87.087162
1714.000000	87.070708
1713.000000	87.083415
1712.000000	87.029050
1711.000000	87.033111
1710.000000	86.981199
1709.000000	86.989038
1708.000000	86.945937
1707.000000	86.949366
1706.000000	86.933898
1705.000000	86.881744
1704.000000	86.830309
1703.000000	86.844003
1702.000000	86.809067
1701.000000	86.780926
1700.000000	86.727655
1699.000000	86.724982
1698.000000	86.677041
1697.000000	86.676288
1696.000000	86.649313
1695.000000	86.614603
1694.000000	86.582283
1693.000000	86.583962
1692.000000	86.535794
1691.000000	86.535203
1690.000000	86.485218
1689.000000	86.503102
1688.000000	86.454717
1687.000000	86.448091
1686.000000	86.407930
1685.000000	86.402849
1684.000000	86.393163
1683.000000	86.359497
1682.000000	86.331450
1681.000000	86.352039
1680.000000	86.321391
1679.000000	86.322542
1678.000000	86.286861
1677.000000	86.295051
1676.000000	86.277188
1675.000000	86.262176
1674.000000	86.256774
1673.000000	86.279453
1672.000000	86.252884
1671.000000	86.271895
1670.000000	86.255029
1669.000000	86.289480
1668.000000	86.265095
1667.000000	86.280629
1666.000000	86.263080
1665.000000	86.259129
1664.000000	86.240505
1663.000000	86.246611
1662.000000	86.244570
1661.000000	86.230847
1660.000000	86.210573
1659.000000	86.234811
1658.000000	86.219095
1657.000000	86.183902
1656.000000	86.188007
1655.000000	86.199040
1654.000000	86.165001
1653.000000	86.157140
1652.000000	86.156134
1651.000000	86.129967
1650.000000	86.117416
1649.000000	86.130922
1648.000000	86.118421
1647.000000	86.103534
1646.000000	86.103073
1645.000000	86.103356
1644.000000	86.083061
1643.000000	86.085536
1642.000000	86.058023
1641.000000	86.057575
1640.000000	86.031902
1639.000000	86.041504
1638.000000	86.029544
1637.000000	86.027369
1636.000000	86.014259
1635.000000	86.016025
1634.000000	86.015897
1633.000000	85.999237
1632.000000	85.998429
1631.000000	86.009516
1630.000000	85.991080
1629.000000	85.975126
1628.000000	85.965645
1627.000000	85.972590
1626.000000	85.959082
1625.000000	85.962128
1624.000000	85.955387
1623.000000	85.949904
1622.000000	85.951596
1621.000000	85.946910
1620.000000	85.938571
1619.000000	85.936692
1618.000000	85.932910
1617.000000	85.943540
1616.000000	85.950043
1615.000000	85.949766
1614.000000	85.940111
1613.000000	85.920542
1612.000000	85.911095
1611.000000	85.913389
1610.000000	85.914663
1609.000000	85.906303
1608.000000	85.904139
1607.000000	85.914089
1606.000000	85.920647
1605.000000	85.926411
1604.000000	85.908676
1603.000000	85.906819
1602.000000	85.931661
1601.000000	85.921587
1600.000000	85.912995
1599.000000	85.932714
1598.000000	85.934392
1597.000000	85.932255
1596.000000	85.935423
1595.000000	85.939638
1594.000000	85.925461
1593.000000	85.935601
1592.000000	85.941688
1591.000000	85.938497
1590.000000	85.943040
1589.000000	85.941510
1588.000000	85.942891
1587.000000	85.954803
1586.000000	85.956640
1585.000000	85.956593
1584.000000	85.947521
1583.000000	85.949536
1582.000000	85.974196
1581.000000	85.986773
1580.000000	85.982116
1579.000000	85.986213
1578.000000	85.998008
1577.000000	86.012105
1576.000000	86.001533
1575.000000	86.002385
1574.000000	86.019004
1573.000000	86.033295
1572.000000	86.040229
1571.000000	86.038139
1570.000000	86.049740
1569.000000	86.047198
1568.000000	86.033224
1567.000000	86.048528
1566.000000	86.068772
1565.000000	86.082301
1564.000000	86.103967
1563.000000	86.115665
1562.000000	86.132912
1561.000000	86.153241
1560.000000	86.168401
1559.000000	86.165846
1558.000000	86.178898
1557.000000	86.183663
1556.000000	86.167157
1555.000000	86.100361
1554.000000	85.965740
1553.000000	85.801473
1552.000000	85.747926
1551.000000	85.761494
1550.000000	85.785277
1549.000000	85.799315
1548.000000	85.808242
1547.000000	85.810531
1546.000000	85.827855
1545.000000	85.839519
1544.000000	85.859017
1543.000000	85.877885
1542.000000	85.879925
1541.000000	85.774437
1540.000000	85.739330
1539.000000	85.748735
1538.000000	85.762415
1537.000000	85.795318
1536.000000	85.885417
1535.000000	86.017837
1534.000000	86.087779
1533.000000	86.088997
1532.000000	86.104855
1531.000000	86.133630
1530.000000	86.166298
1529.000000	86.035847
1528.000000	85.982044
1527.000000	85.987179
1526.000000	86.020844
1525.000000	86.037014
1524.000000	86.181398
1523.000000	86.256600
1522.000000	86.284305
1521.000000	86.125394
1520.000000	86.068283
1519.000000	86.076898
1518.000000	86.276186
1517.000000	86.372288
1516.000000	86.390625
1515.000000	86.218517
1514.000000	86.208525
1513.000000	86.401072
1512.000000	86.481570
1511.000000	86.489046
1510.000000	86.349013
1509.000000	86.320719
1508.000000	86.516363
1507.000000	86.595358
1506.000000	86.621584
1505.000000	86.440176
1504.000000	86.580227
1503.000000	86.670294
1502.000000	86.680527
1501.000000	86.698985
1500.000000	86.540655
1499.000000	86.688007
1498.000000	86.771405
1497.000000	86.769040
1496.000000	86.801266
1495.000000	86.622861
1494.000000	86.624428
1493.000000	86.637262
1492.000000	86.843352
1491.000000	86.925004
1490.000000	86.965515
1489.000000	86.987401
1488.000000	86.988309
1487.000000	87.014557
1486.000000	86.862788
1485.000000	86.819697
1484.000000	86.866492
1483.000000	86.879620
1482.000000	86.921421
1481.000000	86.939015
1480.000000	87.165814
1479.000000	87.200671
1478.000000	87.218147
1477.000000	87.214027
1476.000000	87.253891
1475.000000	87.258157
1474.000000	87.278282
1473.000000	87.268976
1472.000000	87.288590
1471.000000	87.319458
1470.000000	87.332238
1469.000000	87.352006
1468.000000	87.194319
1467.000000	87.215469
1466.000000	87.431679
1465.000000	87.463274
1464.000000	87.485635
1463.000000	87.508010
1462.000000	87.552845
1461.000000	87.387186
1460.000000	87.571003
1459.000000	87.596065
1458.000000	87.614433
1457.000000	87.630620
1456.000000	87.650128
1455.000000	87.477205
1454.000000	87.462664
1453.000000	87.669069
1452.000000	87.704142
1451.000000	87.748064
1450.000000	87.796936
1449.000000	87.786325
1448.000000	87.809935
1447.000000	87.794523
1446.000000	87.817037
1445.000000	87.847971
1444.000000	87.884634
1443.000000	87.690362
1442.000000	87.718586
1441.000000	87.688374
1440.000000	87.741755
1439.000000	87.721728
1438.000000	87.949293
1437.000000	87.984677
1436.000000	87.976601
1435.000000	87.986521
1434.000000	88.016589
1433.000000	88.010625
1432.000000	88.041655
1431.000000	88.036921
1430.000000	88.082999
1429.000000	88.062119
1428.000000	88.076599
1427.000000	88.088338
1426.000000	88.107313
1425.000000	88.103318
1424.000000	88.123401
1423.000000	88.167111
1422.000000	88.154359
1421.000000	88.030366
1420.000000	88.032599
1419.000000	87.998448
1418.000000	88.143491
1417.000000	88.180884
1416.000000	88.171341
1415.000000	88.140764
1414.000000	87.967936
1413.000000	88.165983
1412.000000	87.999931
1411.000000	87.995014
1410.000000	88.008002
1409.000000	88.187409
1408.000000	87.959174
1407.000000	87.936690
1406.000000	88.116083
1405.000000	88.121074
1404.000000	87.923446
1403.000000	87.916501
1402.000000	87.912374
1401.000000	87.875829
1400.000000	87.904145
1399.000000	87.896576
1398.000000	87.917378
1397.000000	88.092542
1396.000000	88.097865
1395.000000	88.057097
1394.000000	88.066573
1393.000000	88.061633
1392.000000	88.055373
1391.000000	88.014261
1390.000000	87.988207
1389.000000	87.976071
1388.000000	88.009356
1387.000000	87.978711
1386.000000	87.968361
1385.000000	87.959144
1384.000000	87.931351
1383.000000	87.925065
1382.000000	87.896978
1381.000000	87.764288
1380.000000	87.745810
1379.000000	87.701565
1378.000000	87.572575
1377.000000	87.716186
1376.000000	87.852862
1375.000000	87.646042
1374.000000	87.615111
1373.000000	87.590631
1372.000000	87.570550
1371.000000	87.547587
1370.000000	87.535690
1369.000000	87.502661
1368.000000	87.455616
1367.000000	87.441258
1366.000000	87.420512
1365.000000	87.359465
1364.000000	87.349344
1363.000000	87.347716
1362.000000	87.507342
1361.000000	87.427471
1360.000000	87.214066
1359.000000	87.196149
1358.000000	87.178794
1357.000000	87.170436
1356.000000	87.208321
1355.000000	87.357189
1354.000000	87.334791
1353.000000	87.274399
1352.000000	87.121238
1351.000000	87.110232
1350.000000	87.108617
1349.000000	87.182839
1348.000000	87.325900
1347.000000	87.298995
1346.000000	87.290270
1345.000000	87.285316
1344.000000	87.233409
1343.000000	87.167051
1342.000000	87.268585
1341.000000	87.257097
1340.000000	87.238654
1339.000000	87.229362
1338.000000	87.217559
1337.000000	87.205535
1336.000000	87.158216
1335.000000	87.105386
1334.000000	87.184273
1333.000000	87.161184
1332.000000	87.157867
1331.000000	87.132553
1330.000000	87.109569
1329.000000	87.092819
1328.000000	87.080683
1327.000000	87.056996
1326.000000	87.022395
1325.000000	87.002199
1324.000000	87.001246
1323.000000	86.986079
1322.000000	86.956547
1321.000000	86.920347
1320.000000	86.908018
1319.000000	86.860277
1318.000000	86.825862
1317.000000	86.857628
1316.000000	86.854995
1315.000000	86.836949
1314.000000	86.831132
1313.000000	86.808070
1312.000000	86.724662
1311.000000	86.617113
1310.000000	86.608609
1309.000000	86.600348
1308.000000	86.579291
1307.000000	86.608923
1306.000000	86.652628
1305.000000	86.632368
1304.000000	86.620346
1303.000000	86.597536
1302.000000	86.586420
1301.000000	86.514225
1300.000000	86.414346
1299.000000	86.397836
1298.000000	86.438454
1297.000000	86.479746
1296.000000	86.461946
1295.000000	86.443110
1294.000000	86.434752
1293.000000	86.429348
1292.000000	86.418711
1291.000000	86.407788
1290.000000	86.334697
1289.000000	86.329028
1288.000000	86.386167
1287.000000	86.362872
1286.000000	86.354152
1285.000000	86.351982
1284.000000	86.352133
1283.000000	86.295351
1282.000000	86.228038
1281.000000	86.287348
1280.000000	86.320298
1279.000000	86.306228
1278.000000	86.318985
1277.000000	86.324999
1276.000000	86.300512
1275.000000	86.290667
1274.000000	86.286112
1273.000000	86.279318
1272.000000	86.275626
1271.000000	86.271056
1270.000000	86.247589
1269.000000	86.191405
1268.000000	86.149891
1267.000000	86.200058
1266.000000	86.247953
1265.000000	86.249268
1264.000000	86.242082
1263.000000	86.222635
1262.000000	86.219193
1261.000000	86.230445
1260.000000	86.240896
1259.000000	86.244112
1258.000000	86.241511
1257.000000	86.257808
1256.000000	86.252840
1255.000000	86.263321
1254.000000	86.265604
1253.000000	86.202926
1252.000000	86.177907
1251.000000	86.194491
1250.000000	86.245646
1249.000000	86.286306
1248.000000	86.305637
1247.000000	86.307102
1246.000000	86.317167
1245.000000	86.268769
1244.000000	86.300731
1243.000000	86.361769
1242.000000	86.365151
1241.000000	86.382125
1240.000000	86.384379
1239.000000	86.393810
1238.000000	86.396193
1237.000000	86.414456
1236.000000	86.441565
1235.000000	86.459653
1234.000000	86.461196
1233.000000	86.491703
1232.000000	86.484375
1231.000000	86.471404
1230.000000	86.534299
1229.000000	86.581149
1228.000000	86.598853
1227.000000	86.617812
1226.000000	86.546178
1225.000000	86.512205
1224.000000	86.526114
1223.000000	86.564545
1222.000000	86.673590
1221.000000	86.724702
1220.000000	86.718939
1219.000000	86.758006
1218.000000	86.767764
1217.000000	86.780922
1216.000000	86.820761
1215.000000	86.866771
1214.000000	86.888306
1213.000000	86.834040
1212.000000	86.827465
1211.000000	86.902167
1210.000000	86.930796
1209.000000	86.972100
1208.000000	86.922204
1207.000000	87.040505
1206.000000	87.069975
1205.000000	87.097788
1204.000000	87.025729
1203.000000	87.119383
1202.000000	87.169287
1201.000000	87.191097
1200.000000	87.215975
1199.000000	87.246533
1198.000000	87.261101
1197.000000	87.188403
1196.000000	87.225022
1195.000000	87.241775
1194.000000	87.250259
1193.000000	87.269518
1192.000000	87.305397
1191.000000	87.348931
1190.000000	87.474272
1189.000000	87.483733
1188.000000	87.495332
1187.000000	87.532657
1186.000000	87.567922
1185.000000	87.606387
1184.000000	87.631039
1183.000000	87.665647
1182.000000	87.667389
1181.000000	87.705444
1180.000000	87.722433
1179.000000	87.745169
1178.000000	87.763028
1177.000000	87.806698
1176.000000	87.831513
1175.000000	87.840186
1174.000000	87.866212
1173.000000	87.881038
1172.000000	87.870916
1171.000000	87.916434
1170.000000	87.911515
1169.000000	87.920431
1168.000000	87.970356
1167.000000	88.006158
1166.000000	88.027719
1165.000000	88.057995
1164.000000	88.074789
1163.000000	88.079625
1162.000000	88.103410
1161.000000	88.025259
1160.000000	88.047908
1159.000000	88.057401
1158.000000	88.153727
1157.000000	88.207114
1156.000000	88.209469
1155.000000	88.202741
1154.000000	88.192075
1153.000000	88.213612
1152.000000	88.183953
1151.000000	88.241082
1150.000000	88.149545
1149.000000	88.173617
1148.000000	88.265206
1147.000000	88.283572
1146.000000	88.273849
1145.000000	88.256210
1144.000000	88.278045
1143.000000	88.293733
1142.000000	88.266260
1141.000000	88.310339
1140.000000	88.274319
1139.000000	88.179586
1138.000000	88.154110
1137.000000	88.164712
1136.000000	88.245648
1135.000000	88.307904
1134.000000	88.297567
1133.000000	88.288217
1132.000000	88.272035
1131.000000	88.276454
1130.000000	88.253429
1129.000000	88.147834
1128.000000	88.115804
1127.000000	88.125611
1126.000000	88.232146
1125.000000	88.236864
1124.000000	88.201548
1123.000000	88.222453
1122.000000	88.178650
1121.000000	88.171889
1120.000000	88.123859
1119.000000	88.123802
1118.000000	88.115154
1117.000000	88.122253
1116.000000	88.128299
1115.000000	88.086545
1114.000000	88.051591
1113.000000	88.035376
1112.000000	88.010611
1111.000000	87.984128
1110.000000	87.967998
1109.000000	87.948512
1108.000000	87.935674
1107.000000	87.938281
1106.000000	87.905122
1105.000000	87.893304
1104.000000	87.883430
1103.000000	87.869020
1102.000000	87.727305
1101.000000	87.714566
1100.000000	87.670015
1099.000000	87.645222
1098.000000	87.743280
1097.000000	87.712750
1096.000000	87.678249
1095.000000	87.642436
1094.000000	87.525488
1093.000000	87.504473
1092.000000	87.506533
1091.000000	87.584385
1090.000000	87.569607
1089.000000	87.565497
1088.000000	87.480009
1087.000000	87.329599
1086.000000	87.291784
1085.000000	87.321296
1084.000000	87.382987
1083.000000	87.376760
1082.000000	87.329633
1081.000000	87.198382
1080.000000	87.170147
1079.000000	87.184356
1078.000000	87.247013
1077.000000	87.241997
1076.000000	87.186025
1075.000000	87.059436
1074.000000	87.020165
1073.000000	87.017764
1072.000000	87.080996
1071.000000	87.098106
1070.000000	87.042809
1069.000000	86.930860
1068.000000	86.905158
1067.000000	86.884276
1066.000000	86.881851
1065.000000	86.948921
1064.000000	86.962425
1063.000000	86.916011
1062.000000	86.763090
1061.000000	86.760674
1060.000000	86.739538
1059.000000	86.788463
1058.000000	86.860204
1057.000000	86.814166
1056.000000	86.694893
1055.000000	86.699843
1054.000000	86.726210
1053.000000	86.767604
1052.000000	86.655673
1051.000000	86.640956
1050.000000	86.657090
1049.000000	86.775239
1048.000000	86.727334
1047.000000	86.638938
1046.000000	86.627827
1045.000000	86.691431
1044.000000	86.723465
1043.000000	86.602310
1042.000000	86.592323
1041.000000	86.657921
1040.000000	86.725381
1039.000000	86.640038
1038.000000	86.686203
1037.000000	86.717878
1036.000000	86.609426
1035.000000	86.620298
1034.000000	86.678529
1033.000000	86.745950
1032.000000	86.673197
1031.000000	86.607478
1030.000000	86.547445
1029.000000	86.655330
1028.000000	86.664436
1027.000000	86.697301
1026.000000	86.719660
1025.000000	86.731345
1024.000000	86.722177
1023.000000	86.727255
1022.000000	86.755972
1021.000000	86.786222
1020.000000	86.814431
1019.000000	86.748957
1018.000000	86.741216
1017.000000	86.869189
1016.000000	86.899788
1015.000000	86.930313
1014.000000	86.864466
1013.000000	86.873044
1012.000000	87.011410
1011.000000	87.029504
1010.000000	87.054686
1009.000000	86.991320
1008.000000	86.909437
1007.000000	87.039929
1006.000000	87.191142
1005.000000	87.229540
1004.000000	87.253730
1003.000000	87.208486
1002.000000	87.167296
1001.000000	87.313322
1000.000000	87.438903
999.000000	87.377829
998.000000	87.382811
997.000000	87.544463
996.000000	87.661372
995.000000	87.674485
994.000000	87.776160
993.000000	87.976104
992.000000	88.074819
991.000000	88.159519
990.000000	88.243330
989.000000	88.286098
988.000000	88.327197
987.000000	88.352813
986.000000	88.383241
985.000000	88.408637
984.000000	88.424232
983.000000	88.434789
982.000000	88.456621
981.000000	88.484695
980.000000	88.494219
979.000000	88.492042
978.000000	88.511831
977.000000	88.536732
976.000000	88.571303
975.000000	88.590813
974.000000	88.618283
973.000000	88.626755
972.000000	88.631697
971.000000	88.647697
970.000000	88.654203
969.000000	88.650431
968.000000	88.660491
967.000000	88.666083
966.000000	88.678650
965.000000	88.694729
964.000000	88.697591
963.000000	88.676708
962.000000	88.673960
961.000000	88.678272
960.000000	88.682203
959.000000	88.654870
958.000000	88.656806
957.000000	88.660629
956.000000	88.647958
955.000000	88.643242
954.000000	88.640832
953.000000	88.621914
952.000000	88.612529
951.000000	88.587318
950.000000	88.583555
949.000000	88.541840
948.000000	88.504834
947.000000	88.503721
946.000000	88.499078
945.000000	88.481942
944.000000	88.457758
943.000000	88.429208
942.000000	88.407763
941.000000	88.385005
940.000000	88.387153
939.000000	88.355596
938.000000	88.339530
937.000000	88.282727
936.000000	88.272488
935.000000	88.234140
934.000000	88.214147
933.000000	88.178861
932.000000	88.130874
931.000000	88.057350
930.000000	88.044870
929.000000	87.999205
928.000000	87.993957
927.000000	87.961160
926.000000	87.946118
925.000000	87.895722
924.000000	87.867040
923.000000	87.831001
922.000000	87.803693
921.000000	87.743985
920.000000	87.701554
919.000000	87.683015
918.000000	87.709790
917.000000	87.627218
916.000000	87.586789
915.000000	87.566288
914.000000	87.568114
913.000000	87.510408
912.000000	87.512821
911.000000	87.410061
910.000000	87.414098
909.000000	87.384116
908.000000	87.361343
907.000000	87.365626
906.000000	87.388910
905.000000	87.287005
904.000000	87.255367
903.000000	87.220016
902.000000	87.221062
901.000000	87.198212
900.000000	87.264409
899.000000	87.169433
898.000000	87.214248
897.000000	87.192767
896.000000	87.113959
895.000000	87.107710
894.000000	87.159209
893.000000	87.027492
892.000000	87.153713
891.000000	87.084592
890.000000	87.103964
889.000000	87.064606
888.000000	87.122062
887.000000	87.049737
886.000000	87.139793
885.000000	87.077084
884.000000	87.167469
883.000000	87.133983
882.000000	87.167973
881.000000	87.163870
880.000000	87.184408
879.000000	87.170895
878.000000	87.275107
877.000000	87.227041
876.000000	87.279593
875.000000	87.300760
874.000000	87.307384
873.000000	87.319812
872.000000	87.254531
871.000000	87.302311
870.000000	87.427637
869.000000	87.325678
868.000000	87.426188
867.000000	87.376525
866.000000	87.495474
865.000000	87.454345
864.000000	87.584003
863.000000	87.521938
862.000000	87.717171
861.000000	87.559281
860.000000	87.189202
859.000000	86.542265
858.000000	86.805569
857.000000	87.136084
856.000000	86.667312
855.000000	87.021175
854.000000	87.438570
853.000000	87.273191
852.000000	87.176625
851.000000	87.182284
850.000000	87.206344
849.000000	87.140410
848.000000	87.554094
847.000000	87.543020
846.000000	87.499671
845.000000	87.306027
844.000000	87.475833
843.000000	87.613878
842.000000	87.455680
841.000000	87.445543
840.000000	87.666484
839.000000	87.509269
838.000000	87.666280
837.000000	87.153184
836.000000	87.603984
835.000000	87.392914
834.000000	87.566139
833.000000	87.696369
832.000000	87.562516
831.000000	87.486382
830.000000	87.352881
829.000000	87.366822
828.000000	87.397782
827.000000	87.300848
826.000000	87.329164
825.000000	87.272275
824.000000	87.357530
823.000000	87.504506
822.000000	87.145855
821.000000	87.048096
820.000000	86.757066
819.000000	87.225431
818.000000	87.116878
817.000000	87.191187
816.000000	87.099495
815.000000	86.888727
814.000000	86.748859
813.000000	86.858076
812.000000	86.881754
811.000000	86.641334
810.000000	86.826182
809.000000	86.814121
808.000000	86.535461
807.000000	86.635060
806.000000	86.674887
805.000000	86.632929
804.000000	86.435941
803.000000	86.500793
802.000000	86.535627
801.000000	86.487356
800.000000	86.207453
799.000000	86.158787
798.000000	86.181408
797.000000	86.143077
796.000000	86.060501
795.000000	86.069777
794.000000	85.980286
793.000000	85.879028
792.000000	85.804832
791.000000	85.896824
790.000000	85.824095
789.000000	85.780382
788.000000	85.809665
787.000000	85.759398
786.000000	85.754479
785.000000	85.530790
784.000000	85.621749
783.000000	85.808554
782.000000	85.765954
781.000000	85.598024
780.000000	85.598676
779.000000	85.578210
778.000000	85.670374
777.000000	85.639520
776.000000	85.658892
775.000000	85.649390
774.000000	85.687517
773.000000	85.737258
772.000000	85.628850
771.000000	85.550526
770.000000	85.551245
769.000000	85.763864
768.000000	85.747771
767.000000	85.819576
766.000000	85.720388
765.000000	85.769710
764.000000	85.728892
763.000000	85.766091
762.000000	85.860815
761.000000	85.897318
760.000000	85.796653
759.000000	85.731349
758.000000	85.911954
757.000000	85.926865
756.000000	85.994078
755.000000	85.979504
754.000000	86.048535
753.000000	86.033431
752.000000	86.113882
751.000000	86.108504
750.000000	86.060107
749.000000	86.091097
748.000000	86.125866
747.000000	86.244573
746.000000	86.383655
745.000000	86.246768
744.000000	86.237104
743.000000	86.276048
742.000000	86.370168
741.000000	86.406810
740.000000	86.460158
739.000000	86.275019
738.000000	86.333288
737.000000	86.386899
736.000000	86.356581
735.000000	86.378856
734.000000	86.380810
733.000000	86.253231
732.000000	86.244395
731.000000	86.163519
730.000000	86.206979
729.000000	86.205973
728.000000	86.121162
727.000000	86.075392
726.000000	85.993014
725.000000	86.010736
724.000000	86.020654
723.000000	85.986325
722.000000	85.877590
721.000000	85.727048
720.000000	85.676160
719.000000	85.662682
718.000000	85.554943
717.000000	85.419454
716.000000	85.382738
715.000000	85.424824
714.000000	85.401776
713.000000	85.319456
712.000000	85.238699
711.000000	85.140551
710.000000	85.055412
709.000000	85.026145
708.000000	84.973819
707.000000	84.857395
706.000000	84.700437
705.000000	84.617185
704.000000	84.603897
703.000000	84.548283
702.000000	84.557561
701.000000	84.498005
700.000000	84.416177
699.000000	84.371856
698.000000	84.350730
697.000000	84.354911
696.000000	84.316619
695.000000	84.292606
694.000000	84.206541
693.000000	84.218018
692.000000	84.263703
691.000000	84.205165
690.000000	84.125049
689.000000	84.107184
688.000000	84.164914
687.000000	84.220226
686.000000	84.282191
685.000000	84.216834
684.000000	84.241158
683.000000	84.286794
682.000000	84.282450
681.000000	84.226322
680.000000	84.305447
679.000000	84.346417
678.000000	84.374132
677.000000	84.372064
676.000000	84.397107
675.000000	84.449279
674.000000	84.507947
673.000000	84.513310
672.000000	84.607165
671.000000	84.575462
670.000000	84.594428
669.000000	84.607323
668.000000	84.584349
667.000000	84.654923
666.000000	84.645191
665.000000	84.683580
664.000000	84.690167
663.000000	84.666612
662.000000	84.651444
661.000000	84.640619
660.000000	84.550136
659.000000	84.593661
658.000000	84.538366
657.000000	84.512041
656.000000	84.446200
655.000000	84.456101
654.000000	84.439315
653.000000	84.377558
652.000000	84.203467
651.000000	84.193039
650.000000	84.122491
649.000000	84.098747
648.000000	84.021301
647.000000	84.013328
646.000000	83.864094
645.000000	83.724769
644.000000	83.632193
643.000000	83.595356
642.000000	83.485953
641.000000	83.464023
640.000000	83.344434
639.000000	83.335280
638.000000	83.233124
637.000000	83.183050
636.000000	83.114870
635.000000	83.037971
634.000000	82.971374
633.000000	82.899641
632.000000	82.887515
631.000000	82.801586
630.000000	82.739644
629.000000	82.710845
628.000000	82.661789
627.000000	82.626491
626.000000	82.686287
625.000000	82.610483
624.000000	82.523945
623.000000	82.580673
622.000000	82.537880
621.000000	82.625905
620.000000	82.695413
619.000000	82.652354
618.000000	82.655431
617.000000	82.673207
616.000000	82.709905
615.000000	82.739625
614.000000	82.758834
613.000000	82.733143
612.000000	82.710199
611.000000	82.765759
610.000000	82.802326
609.000000	82.849677
608.000000	82.802877
607.000000	82.831013
606.000000	82.919193
605.000000	82.942799
604.000000	82.874988
603.000000	82.868350
602.000000	82.820860
601.000000	82.820542
600.000000	82.907705
599.000000	82.749495
598.000000	82.719272
597.000000	82.647062
596.000000	82.654368
595.000000	82.589877
594.000000	82.497980
593.000000	82.326321
592.000000	82.287231
591.000000	82.171618
590.000000	82.128132
589.000000	82.066479
588.000000	81.986719
587.000000	81.881144
586.000000	81.784997
585.000000	81.560498
584.000000	81.658857
583.000000	81.493933
582.000000	81.405747
581.000000	81.386401
580.000000	81.308458
579.000000	81.261467
578.000000	81.239904
577.000000	81.128075
576.000000	81.048583
575.000000	81.073031
574.000000	81.061938
573.000000	81.070029
572.000000	80.984641
571.000000	81.082863
570.000000	81.026977
569.000000	81.083714
568.000000	81.067404
567.000000	81.135036
566.000000	81.074569
565.000000	81.029512
564.000000	81.105043
563.000000	81.263706
562.000000	81.229157
561.000000	81.393968
560.000000	81.400182
559.000000	81.427608
558.000000	81.452493
557.000000	81.450159
556.000000	81.326835
555.000000	81.447668
554.000000	81.393089
553.000000	81.374946
552.000000	81.298450
551.000000	81.264576
550.000000	81.173052
549.000000	81.165458
548.000000	81.071014
547.000000	81.004977
546.000000	80.934517
545.000000	80.813769
544.000000	80.700252
543.000000	80.646551
542.000000	80.504630
541.000000	80.381650
540.000000	80.311523
539.000000	80.209234
538.000000	80.162175
537.000000	80.072247
536.000000	80.002720
535.000000	79.970001
534.000000	79.896019
533.000000	79.824457
532.000000	79.824639
531.000000	79.739537
530.000000	79.765017
529.000000	79.792657
528.000000	79.808193
527.000000	79.780419
526.000000	79.831606
525.000000	79.866241
524.000000	79.864795
523.000000	79.894296
522.000000	79.903551
521.000000	79.857670
520.000000	79.890902
519.000000	79.922236
518.000000	79.958637
517.000000	80.015604
516.000000	79.939614
515.000000	79.947542
514.000000	79.849875
513.000000	79.745282
512.000000	79.656702
511.000000	79.564901
510.000000	79.465600
509.000000	79.385797
508.000000	79.272929
507.000000	79.178228
506.000000	78.980872
505.000000	78.895293
504.000000	78.768651
503.000000	78.684690
502.000000	78.600196
501.000000	78.446459
500.000000	78.310952
499.000000	78.277736
498.000000	78.195900
497.000000	78.230875
496.000000	78.246343
495.000000	78.205448
494.000000	78.203521
493.000000	78.198386
492.000000	78.254983
491.000000	78.324786
490.000000	78.291738
489.000000	78.350656
488.000000	78.457896
487.000000	78.536461
486.000000	78.544194
485.000000	78.524137
484.000000	78.596889
483.000000	78.684172
482.000000	78.634267
481.000000	78.606023
480.000000	78.528205
479.000000	78.311889
478.000000	78.156014
477.000000	78.046217
476.000000	77.935458
475.000000	77.788795
474.000000	77.663648
473.000000	77.465110
472.000000	77.280278
471.000000	77.125758
470.000000	76.971407
469.000000	76.872560
468.000000	76.766650
467.000000	76.671653
466.000000	76.609919
465.000000	76.553026
464.000000	76.492193
463.000000	76.472064
462.000000	76.407133
461.000000	76.439455
460.000000	76.463538
459.000000	76.423534
458.000000	76.383960
457.000000	76.350706
456.000000	76.303979
455.000000	76.200560
454.000000	76.015939
453.000000	75.864953
452.000000	75.711427
451.000000	75.543567
450.000000	75.378494
449.000000	75.162228
448.000000	74.932771
447.000000	74.746735
446.000000	74.634339
445.000000	74.447722
444.000000	74.278389
443.000000	74.207766
442.000000	74.109414
441.000000	73.987112
440.000000	73.821757
439.000000	73.687235
438.000000	73.558132
437.000000	73.349842
436.000000	73.150504
435.000000	72.974640
434.000000	72.722836
433.000000	72.372797
432.000000	71.940515
431.000000	71.456165
430.000000	70.989080
429.000000	70.506853
428.000000	69.909042
427.000000	69.222284
426.000000	68.568641
425.000000	67.895817
424.000000	67.212211
423.000000	66.481653
422.000000	65.630676
421.000000	64.793024
420.000000	63.937367
419.000000	63.054480
418.000000	62.156515
417.000000	61.218357
416.000000	60.369427
415.000000	59.560944
414.000000	58.856195
413.000000	58.294373
412.000000	57.867750
411.000000	57.608394
410.000000	57.406882
409.000000	57.238950
408.000000	57.244987
407.000000	57.363737
406.000000	57.456548
405.000000	57.628754
404.000000	57.875648
403.000000	58.171355
402.000000	58.500558
401.000000	58.894830
400.000000	59.310078
399.000000	59.646640
398.000000	59.964381
397.000000	60.309697
396.000000	60.710758
395.000000	61.105346
394.000000	61.444044
393.000000	61.796228
392.000000	62.145618
391.000000	62.445866
390.000000	62.742275
389.000000	63.085905
388.000000	63.350329
387.000000	63.604759
386.000000	63.957456
385.000000	64.222657
384.000000	64.475976
383.000000	64.809170
382.000000	65.109269
381.000000	65.538242
380.000000	65.947997
379.000000	66.885014
378.000000	66.964844
377.000000	67.299880
376.000000	67.653843
375.000000	68.305045
374.000000	69.430891
373.000000	70.501866
372.000000	71.337820
371.000000	72.375704
370.000000	73.627473
369.000000	75.254501
368.000000	76.323128
367.000000	77.825563
366.000000	78.648625
365.000000	79.464693
364.000000	80.541865
363.000000	81.399604
362.000000	82.298978
361.000000	83.371172
360.000000	84.242271
359.000000	85.242095
358.000000	85.957768
357.000000	86.692381
356.000000	87.464017
355.000000	88.023776
354.000000	88.586763
353.000000	89.358000
352.000000	90.280376
351.000000	90.868574
350.000000	92.030823
349.000000	92.997958
348.000000	93.611566
347.000000	94.288051
346.000000	94.625910
345.000000	95.380314
344.000000	95.537386
343.000000	95.261850
342.000000	96.266608
341.000000	95.816266
340.000000	96.248502
339.000000	95.900388
338.000000	96.195980
337.000000	95.619294
336.000000	95.741603
335.000000	95.210968
334.000000	95.007218
333.000000	94.591984
332.000000	94.737815
331.000000	94.909159
330.000000	94.972694
329.000000	94.504677
328.000000	94.704499
327.000000	94.089275
326.000000	94.151838
325.000000	94.466239
324.000000	93.758609
323.000000	93.783799
322.000000	94.163730
321.000000	94.418978
320.000000	93.883820
319.000000	94.191984
318.000000	93.981235
317.000000	94.301187
316.000000	94.148678
315.000000	94.334683
314.000000	94.597294
313.000000	94.726202
312.000000	94.832045
311.000000	94.948377
310.000000	95.115134
309.000000	95.009914
308.000000	95.819515
307.000000	96.678653
306.000000	97.441954
305.000000	98.263638
304.000000	98.919334
303.000000	99.704189
302.000000	99.999628
301.000000	100.327247
300.000000	100.667509
299.000000	101.180908
298.000000	101.707697
297.000000	102.591197
296.000000	103.196389
295.000000	104.008473
294.000000	104.745606
293.000000	105.398195
292.000000	106.640809
291.000000	107.420507
290.000000	108.390848
289.000000	109.458478
288.000000	110.259625
287.000000	111.390001
286.000000	112.606616
285.000000	113.243014
284.000000	114.641299
283.000000	115.295020
282.000000	115.814483
281.000000	116.432968
280.000000	117.157320
279.000000	117.498352
278.000000	117.997905
277.000000	118.219887
276.000000	118.352933
275.000000	118.520937
274.000000	119.082844
273.000000	119.372313
272.000000	119.443687
271.000000	119.802692
270.000000	120.038993
269.000000	120.213214
268.000000	120.737087
267.000000	121.056494
266.000000	121.609148
265.000000	122.558086
264.000000	123.795232
263.000000	124.920990
262.000000	126.203822
261.000000	127.455574
260.000000	128.737434
259.000000	130.316294
258.000000	131.586041
257.000000	133.545493
256.000000	134.841740
255.000000	136.864486
254.000000	138.276565
253.000000	140.200407
252.000000	142.435615
251.000000	144.609150
250.000000	147.085614
249.000000	149.350402
248.000000	151.189365
247.000000	152.962005
246.000000	154.545590
245.000000	156.373558
244.000000	158.598404
243.000000	160.659923
242.000000	164.498726
241.000000	166.712330
240.000000	169.606363
239.000000	171.906029
238.000000	175.801859
237.000000	179.165233
236.000000	183.382246
235.000000	188.023245
234.000000	193.087385
233.000000	197.627177
232.000000	201.513519
231.000000	205.330117
230.000000	209.106643
229.000000	213.349691
228.000000	217.130405
227.000000	221.087061
226.000000	225.931924
225.000000	229.784919
224.000000	233.461396
223.000000	237.615987
222.000000	241.143259
221.000000	244.892383
220.000000	248.288572
219.000000	250.554010
218.000000	254.111478
217.000000	257.918811
216.000000	261.837681
215.000000	264.867561
214.000000	268.544171
213.000000	272.722240
212.000000	277.618291
211.000000	282.937634
210.000000	289.676735
209.000000	297.229402
208.000000	305.014267
207.000000	313.674534
206.000000	323.632584
205.000000	333.939145
204.000000	347.007415
203.000000	360.508799
202.000000	374.587124
201.000000	389.609514
200.000000	406.496246
