PE UV       SUBTECH     SPECTRUM    ASCII       PEDS        4.00        
   -1
100% or 0 Absorbance Baseline.Correction R.asc
22/05/19
16:25:05.00
22/05/19
16:25:05.00
Administrator

250.000000
1
Lambda 1050
1050L1808311
PerkinElmer UV WinLab 6.4.0.973 / 2.02.11 Lambda 900 UV/VIS/NIR. May 23 2018 11:23:04

0
0
3350/servo 860.8/2
0
0
UV/VIS
0
1
1
CommonBeamDepol.RBeamAtt.SBeamAtt.60mm sphere
0
0
0
0
Program
 
0
3350/0.2 860.8/1
0
0
0
 
 
 
0
 
860.8
319.2
860.8
Front
100
on
S:100 R:100
 
0
0
0
 
0
 
 
 
0
 
 
0
0
0
0
0
 
 
 
 
0
0


0
0
#HDR
-1
-1
#GR
nm
%R
1.0
0.0
800.000000
-2.000000
276
8
105.302500
85.279700
#DATA
800.000000	105.299200
798.000000	105.302500
796.000000	105.184700
794.000000	105.203800
792.000000	104.960400
790.000000	104.920800
788.000000	104.811300
786.000000	104.700000
784.000000	104.704600
782.000000	104.638800
780.000000	104.462700
778.000000	104.468600
776.000000	104.333600
774.000000	104.243000
772.000000	104.171700
770.000000	104.094800
768.000000	104.005300
766.000000	103.860900
764.000000	103.852000
762.000000	103.697300
760.000000	103.698600
758.000000	103.591700
756.000000	103.639300
754.000000	103.503500
752.000000	103.370400
750.000000	103.379900
748.000000	103.320300
746.000000	103.215700
744.000000	103.058100
742.000000	102.989700
740.000000	102.952800
738.000000	102.840500
736.000000	102.813900
734.000000	102.741000
732.000000	102.701400
730.000000	102.751400
728.000000	102.667100
726.000000	102.588100
724.000000	102.586200
722.000000	102.468400
720.000000	102.569200
718.000000	102.521600
716.000000	102.450000
714.000000	102.412100
712.000000	102.382400
710.000000	102.389800
708.000000	102.300600
706.000000	102.207100
704.000000	102.205000
702.000000	102.176700
700.000000	102.127100
698.000000	102.100200
696.000000	102.098700
694.000000	102.072900
692.000000	102.177500
690.000000	101.981800
688.000000	102.015500
686.000000	102.018900
684.000000	102.013300
682.000000	101.998800
680.000000	101.992900
678.000000	101.977400
676.000000	101.924900
674.000000	101.910300
672.000000	101.966300
670.000000	101.991700
668.000000	101.936400
666.000000	101.907600
664.000000	101.925000
662.000000	101.933300
660.000000	101.942400
658.000000	101.923100
656.000000	101.929900
654.000000	101.925000
652.000000	101.943900
650.000000	101.943900
648.000000	101.956800
646.000000	101.961000
644.000000	101.949500
642.000000	101.980600
640.000000	102.002300
638.000000	102.032400
636.000000	102.049300
634.000000	102.036200
632.000000	102.046300
630.000000	102.098800
628.000000	102.148000
626.000000	102.133500
624.000000	102.152800
622.000000	102.229700
620.000000	102.275900
618.000000	102.292300
616.000000	102.348500
614.000000	102.361300
612.000000	102.389900
610.000000	102.442500
608.000000	102.470500
606.000000	102.520800
604.000000	102.606400
602.000000	102.663400
600.000000	102.680700
598.000000	102.708500
596.000000	102.758400
594.000000	102.856100
592.000000	102.911400
590.000000	102.989100
588.000000	103.070200
586.000000	103.106300
584.000000	103.167000
582.000000	103.269400
580.000000	103.341900
578.000000	103.409700
576.000000	103.487300
574.000000	103.579500
572.000000	103.664200
570.000000	103.723300
568.000000	103.779800
566.000000	103.872400
564.000000	103.945000
562.000000	104.257000
560.000000	104.704400
558.000000	104.804000
556.000000	104.843700
554.000000	104.923400
552.000000	104.993100
550.000000	105.025200
548.000000	105.068500
546.000000	105.066200
544.000000	105.049700
542.000000	104.995000
540.000000	104.926100
538.000000	104.815200
536.000000	104.617200
534.000000	104.329800
532.000000	103.974200
530.000000	103.527800
528.000000	102.983400
526.000000	102.365700
524.000000	101.639800
522.000000	100.829300
520.000000	99.980900
518.000000	99.128200
516.000000	98.325200
514.000000	97.618700
512.000000	97.051700
510.000000	96.710500
508.000000	96.591800
506.000000	96.674800
504.000000	96.960900
502.000000	97.381700
500.000000	97.909200
498.000000	98.449500
496.000000	99.043000
494.000000	99.656600
492.000000	100.248700
490.000000	100.818600
488.000000	101.391200
486.000000	101.964100
484.000000	102.556000
482.000000	102.756200
480.000000	102.191400
478.000000	101.488700
476.000000	101.007700
474.000000	100.598800
472.000000	100.249800
470.000000	100.017800
468.000000	99.882700
466.000000	99.865800
464.000000	99.972500
462.000000	100.137000
460.000000	100.337200
458.000000	100.578500
456.000000	100.829900
454.000000	101.045300
452.000000	101.227200
450.000000	101.460100
448.000000	101.670200
446.000000	101.926400
444.000000	102.292500
442.000000	102.439400
440.000000	102.416000
438.000000	102.452100
436.000000	102.518100
434.000000	102.522200
432.000000	102.562400
430.000000	102.602700
428.000000	102.643900
426.000000	102.660000
424.000000	102.693900
422.000000	102.703700
420.000000	102.650100
418.000000	102.667700
416.000000	102.576300
414.000000	102.488700
412.000000	102.411000
410.000000	102.207800
408.000000	102.038800
406.000000	101.829400
404.000000	101.526700
402.000000	101.266100
400.000000	101.052800
398.000000	100.826200
396.000000	100.603300
394.000000	100.352300
392.000000	100.160500
390.000000	99.958500
388.000000	99.790900
386.000000	99.668000
384.000000	99.539800
382.000000	99.316300
380.000000	99.063700
378.000000	100.922700
376.000000	101.077300
374.000000	100.329500
372.000000	100.190400
370.000000	99.949300
368.000000	99.699100
366.000000	99.428200
364.000000	99.006800
362.000000	98.770600
360.000000	98.634900
358.000000	98.434300
356.000000	98.208700
354.000000	98.031500
352.000000	97.659200
350.000000	97.536900
348.000000	97.143500
346.000000	97.046000
344.000000	97.181700
342.000000	97.119700
340.000000	96.892200
338.000000	96.565600
336.000000	96.706000
334.000000	96.363600
332.000000	96.341500
330.000000	96.217200
328.000000	95.942300
326.000000	96.002200
324.000000	95.807600
322.000000	95.588100
320.000000	95.112100
318.000000	93.011900
316.000000	92.435100
314.000000	92.127500
312.000000	92.029300
310.000000	91.797500
308.000000	91.546000
306.000000	91.247500
304.000000	91.193800
302.000000	90.998900
300.000000	90.784300
298.000000	90.594400
296.000000	90.413200
294.000000	90.144500
292.000000	89.924200
290.000000	89.800800
288.000000	89.571300
286.000000	89.203900
284.000000	88.994800
282.000000	88.858500
280.000000	88.639000
278.000000	88.503200
276.000000	88.475700
274.000000	88.334300
272.000000	88.143900
270.000000	88.062600
268.000000	87.893200
266.000000	87.715800
264.000000	87.462300
262.000000	87.120400
260.000000	86.943000
258.000000	86.702400
256.000000	86.426600
254.000000	85.953200
252.000000	85.664400
250.000000	85.279700
