PE UV       SUBTECH     SPECTRUM    ASCII       PEDS        4.00        
   -1
c.Sample.asc
22/05/06
15:29:47.00
22/05/06
15:29:47.00
Administrator

200.000000
1
Lambda 1050
1050L1808311
PerkinElmer UV WinLab 6.4.0.973 / 2.02.11 Lambda 900 UV/VIS/NIR. May 23 2018 11:23:04

0
0
3350/servo 860.8/2
0
0
UV/VIS
1
1
1
CommonBeamDepol.RBeamAtt.SBeamAtt.60mm sphere
0
0
0
0
Program
Program
3350/servo 860.8/2
3350/0.2 860.8/0.2
3350/0.2 860.8/0.2
0
1.00
 
 
 
0
 
860.8
319.2
860.8
Front
100
on
S:100 R:100
 
0
0
0
 
0
 
 
 
0
 
 
0
0
0
0
0
 
 
 
 
0
0


0
0
#HDR
-1
-1
#GR
nm
%T
1.0
0.0
2000.000000
-1.000000
1801
8
402.373181
57.638078
#DATA
2000.000000	89.431168
1999.000000	89.406962
1998.000000	89.500831
1997.000000	89.415640
1996.000000	89.407178
1995.000000	89.409318
1994.000000	89.423035
1993.000000	89.404792
1992.000000	89.437577
1991.000000	89.408935
1990.000000	89.446080
1989.000000	89.408123
1988.000000	89.479645
1987.000000	89.397107
1986.000000	89.445442
1985.000000	89.375405
1984.000000	89.468126
1983.000000	89.429753
1982.000000	89.415542
1981.000000	89.432052
1980.000000	89.465670
1979.000000	89.450274
1978.000000	89.493751
1977.000000	89.448806
1976.000000	89.439605
1975.000000	89.447296
1974.000000	89.541432
1973.000000	89.465828
1972.000000	89.491014
1971.000000	89.481477
1970.000000	89.442989
1969.000000	89.442601
1968.000000	89.470061
1967.000000	89.484611
1966.000000	89.500795
1965.000000	89.495577
1964.000000	89.502303
1963.000000	89.485869
1962.000000	89.483093
1961.000000	89.508457
1960.000000	89.462781
1959.000000	89.472540
1958.000000	89.574020
1957.000000	89.519479
1956.000000	89.509116
1955.000000	89.501971
1954.000000	89.492030
1953.000000	89.511527
1952.000000	89.565846
1951.000000	89.502288
1950.000000	89.540227
1949.000000	89.477405
1948.000000	89.512271
1947.000000	89.500059
1946.000000	89.444090
1945.000000	89.448054
1944.000000	89.475237
1943.000000	89.470010
1942.000000	89.492589
1941.000000	89.493822
1940.000000	89.456367
1939.000000	89.487244
1938.000000	89.457790
1937.000000	89.491183
1936.000000	89.543201
1935.000000	89.419530
1934.000000	89.412684
1933.000000	89.434017
1932.000000	89.479030
1931.000000	89.507321
1930.000000	89.479219
1929.000000	89.461378
1928.000000	89.483174
1927.000000	89.460926
1926.000000	89.425556
1925.000000	89.398499
1924.000000	89.392149
1923.000000	89.386323
1922.000000	89.382798
1921.000000	89.333366
1920.000000	89.396095
1919.000000	89.358116
1918.000000	89.332442
1917.000000	89.327269
1916.000000	89.337159
1915.000000	89.284545
1914.000000	89.292527
1913.000000	89.256317
1912.000000	89.203390
1911.000000	89.199030
1910.000000	89.215470
1909.000000	89.185286
1908.000000	89.178516
1907.000000	89.138010
1906.000000	89.170578
1905.000000	89.117272
1904.000000	89.076965
1903.000000	89.003720
1902.000000	88.966727
1901.000000	88.961357
1900.000000	88.955764
1899.000000	88.944922
1898.000000	88.899108
1897.000000	88.832058
1896.000000	88.847060
1895.000000	88.834285
1894.000000	88.784430
1893.000000	88.793939
1892.000000	88.827461
1891.000000	88.711260
1890.000000	88.675186
1889.000000	88.651470
1888.000000	88.637526
1887.000000	88.642600
1886.000000	88.661432
1885.000000	88.645237
1884.000000	88.621885
1883.000000	88.576644
1882.000000	88.508823
1881.000000	88.505120
1880.000000	88.508460
1879.000000	88.493083
1878.000000	88.457484
1877.000000	88.445998
1876.000000	88.478099
1875.000000	88.413850
1874.000000	88.382786
1873.000000	88.387227
1872.000000	88.370900
1871.000000	88.324535
1870.000000	88.293162
1869.000000	88.272538
1868.000000	88.265309
1867.000000	88.225702
1866.000000	88.205152
1865.000000	88.195093
1864.000000	88.173534
1863.000000	88.194882
1862.000000	88.179634
1861.000000	88.159381
1860.000000	88.173688
1859.000000	88.130257
1858.000000	88.086225
1857.000000	88.068635
1856.000000	88.024119
1855.000000	87.976310
1854.000000	87.994794
1853.000000	88.009222
1852.000000	88.001277
1851.000000	88.027618
1850.000000	87.982040
1849.000000	87.959616
1848.000000	87.947445
1847.000000	87.922234
1846.000000	87.877648
1845.000000	87.848243
1844.000000	87.827757
1843.000000	87.785896
1842.000000	87.764988
1841.000000	87.762159
1840.000000	87.741875
1839.000000	87.702549
1838.000000	87.684857
1837.000000	87.689376
1836.000000	87.660651
1835.000000	87.617477
1834.000000	87.586701
1833.000000	87.574991
1832.000000	87.533431
1831.000000	87.522631
1830.000000	87.496468
1829.000000	87.492087
1828.000000	87.503700
1827.000000	87.479930
1826.000000	87.467884
1825.000000	87.440805
1824.000000	87.402582
1823.000000	87.408081
1822.000000	87.366724
1821.000000	87.348463
1820.000000	87.305000
1819.000000	87.259339
1818.000000	87.243529
1817.000000	87.252870
1816.000000	87.262679
1815.000000	87.244071
1814.000000	87.203678
1813.000000	87.184979
1812.000000	87.166985
1811.000000	87.139807
1810.000000	87.105361
1809.000000	87.094097
1808.000000	87.072209
1807.000000	87.048708
1806.000000	87.004307
1805.000000	87.000138
1804.000000	86.981557
1803.000000	86.991006
1802.000000	86.972341
1801.000000	86.937804
1800.000000	86.911007
1799.000000	86.931503
1798.000000	86.905602
1797.000000	86.883109
1796.000000	86.861575
1795.000000	86.848356
1794.000000	86.835326
1793.000000	86.817355
1792.000000	86.785745
1791.000000	86.785992
1790.000000	86.768272
1789.000000	86.759102
1788.000000	86.749412
1787.000000	86.696959
1786.000000	86.663229
1785.000000	86.660631
1784.000000	86.626583
1783.000000	86.633213
1782.000000	86.590136
1781.000000	86.603091
1780.000000	86.572936
1779.000000	86.563177
1778.000000	86.541182
1777.000000	86.537098
1776.000000	86.501848
1775.000000	86.498148
1774.000000	86.472952
1773.000000	86.485186
1772.000000	86.437405
1771.000000	86.459088
1770.000000	86.425394
1769.000000	86.431230
1768.000000	86.399106
1767.000000	86.419952
1766.000000	86.416040
1765.000000	86.399472
1764.000000	86.367867
1763.000000	86.403167
1762.000000	86.374821
1761.000000	86.373224
1760.000000	86.357261
1759.000000	86.331706
1758.000000	86.305514
1757.000000	86.333258
1756.000000	86.326387
1755.000000	86.309068
1754.000000	86.281597
1753.000000	86.291157
1752.000000	86.222613
1751.000000	86.236420
1750.000000	86.231697
1749.000000	86.242737
1748.000000	86.230627
1747.000000	86.233414
1746.000000	86.211029
1745.000000	86.244987
1744.000000	86.217890
1743.000000	86.215328
1742.000000	86.201586
1741.000000	86.227162
1740.000000	86.158030
1739.000000	86.211842
1738.000000	86.172887
1737.000000	86.182253
1736.000000	86.175301
1735.000000	86.145603
1734.000000	86.154183
1733.000000	86.133748
1732.000000	86.157910
1731.000000	86.146304
1730.000000	86.131015
1729.000000	86.179673
1728.000000	86.114563
1727.000000	86.092619
1726.000000	86.113218
1725.000000	86.125889
1724.000000	86.098854
1723.000000	86.120076
1722.000000	86.091361
1721.000000	86.101202
1720.000000	86.115841
1719.000000	86.123695
1718.000000	86.089092
1717.000000	86.096655
1716.000000	86.060049
1715.000000	86.083906
1714.000000	86.058645
1713.000000	86.100930
1712.000000	86.055633
1711.000000	86.033747
1710.000000	86.034312
1709.000000	86.025011
1708.000000	86.005779
1707.000000	86.017210
1706.000000	86.015411
1705.000000	85.982858
1704.000000	85.960826
1703.000000	85.966252
1702.000000	85.930416
1701.000000	85.972584
1700.000000	85.920032
1699.000000	85.927413
1698.000000	85.890826
1697.000000	85.898557
1696.000000	85.904612
1695.000000	85.891905
1694.000000	85.872407
1693.000000	85.890588
1692.000000	85.852343
1691.000000	85.864160
1690.000000	85.835344
1689.000000	85.840505
1688.000000	85.829006
1687.000000	85.856441
1686.000000	85.847730
1685.000000	85.841620
1684.000000	85.875024
1683.000000	85.871709
1682.000000	85.871297
1681.000000	85.881520
1680.000000	85.869622
1679.000000	85.893034
1678.000000	85.879047
1677.000000	85.894316
1676.000000	85.893202
1675.000000	85.915463
1674.000000	85.921981
1673.000000	85.961102
1672.000000	85.968323
1671.000000	86.006703
1670.000000	86.019917
1669.000000	86.066450
1668.000000	86.040270
1667.000000	86.080694
1666.000000	86.108745
1665.000000	86.118986
1664.000000	86.133894
1663.000000	86.160833
1662.000000	86.165483
1661.000000	86.206716
1660.000000	86.220247
1659.000000	86.257822
1658.000000	86.245991
1657.000000	86.259119
1656.000000	86.267883
1655.000000	86.304234
1654.000000	86.304058
1653.000000	86.335827
1652.000000	86.342370
1651.000000	86.352830
1650.000000	86.379586
1649.000000	86.396862
1648.000000	86.411676
1647.000000	86.435161
1646.000000	86.444747
1645.000000	86.474054
1644.000000	86.474634
1643.000000	86.507907
1642.000000	86.493721
1641.000000	86.533094
1640.000000	86.546153
1639.000000	86.568275
1638.000000	86.597555
1637.000000	86.613887
1636.000000	86.624272
1635.000000	86.662642
1634.000000	86.666985
1633.000000	86.686882
1632.000000	86.689686
1631.000000	86.737816
1630.000000	86.764079
1629.000000	86.773469
1628.000000	86.802702
1627.000000	86.849038
1626.000000	86.859135
1625.000000	86.880307
1624.000000	86.909191
1623.000000	86.929252
1622.000000	86.959511
1621.000000	86.984727
1620.000000	86.998755
1619.000000	87.021091
1618.000000	87.036509
1617.000000	87.073637
1616.000000	87.093734
1615.000000	87.123061
1614.000000	87.138509
1613.000000	87.155010
1612.000000	87.187722
1611.000000	87.208866
1610.000000	87.223743
1609.000000	87.261892
1608.000000	87.279771
1607.000000	87.319729
1606.000000	87.346021
1605.000000	87.363632
1604.000000	87.389319
1603.000000	87.417193
1602.000000	87.440152
1601.000000	87.451937
1600.000000	87.486910
1599.000000	87.515564
1598.000000	87.543670
1597.000000	87.585432
1596.000000	87.605751
1595.000000	87.624096
1594.000000	87.640203
1593.000000	87.661589
1592.000000	87.682481
1591.000000	87.700367
1590.000000	87.713772
1589.000000	87.741146
1588.000000	87.771935
1587.000000	87.808356
1586.000000	87.844124
1585.000000	87.872022
1584.000000	87.885296
1583.000000	87.914810
1582.000000	87.953386
1581.000000	87.982082
1580.000000	88.005628
1579.000000	88.024489
1578.000000	88.054831
1577.000000	88.087188
1576.000000	88.092130
1575.000000	88.116691
1574.000000	88.151146
1573.000000	88.181822
1572.000000	88.210339
1571.000000	88.232331
1570.000000	88.259000
1569.000000	88.282269
1568.000000	88.300860
1567.000000	88.331837
1566.000000	88.367774
1565.000000	88.388482
1564.000000	88.403629
1563.000000	88.426611
1562.000000	88.464756
1561.000000	88.497146
1560.000000	88.515362
1559.000000	88.549124
1558.000000	88.584313
1557.000000	88.597716
1556.000000	88.617439
1555.000000	88.616555
1554.000000	88.558616
1553.000000	88.450553
1552.000000	88.293190
1551.000000	88.220281
1550.000000	88.238797
1549.000000	88.252715
1548.000000	88.271329
1547.000000	88.280899
1546.000000	88.306695
1545.000000	88.346374
1544.000000	88.377387
1543.000000	88.381337
1542.000000	88.396098
1541.000000	88.412484
1540.000000	88.327410
1539.000000	88.272568
1538.000000	88.289285
1537.000000	88.331698
1536.000000	88.429529
1535.000000	88.562890
1534.000000	88.631203
1533.000000	88.643965
1532.000000	88.676814
1531.000000	88.701377
1530.000000	88.717597
1529.000000	88.730621
1528.000000	88.583083
1527.000000	88.524963
1526.000000	88.547742
1525.000000	88.569188
1524.000000	88.736530
1523.000000	88.797381
1522.000000	88.806479
1521.000000	88.820957
1520.000000	88.673695
1519.000000	88.611945
1518.000000	88.791886
1517.000000	88.885505
1516.000000	88.903616
1515.000000	88.894099
1514.000000	88.750544
1513.000000	88.880903
1512.000000	88.969734
1511.000000	88.952621
1510.000000	88.969020
1509.000000	88.811697
1508.000000	88.941819
1507.000000	89.012125
1506.000000	89.019658
1505.000000	88.826619
1504.000000	88.956123
1503.000000	89.020357
1502.000000	89.030577
1501.000000	89.031879
1500.000000	89.031052
1499.000000	89.034480
1498.000000	89.046266
1497.000000	89.031888
1496.000000	89.048317
1495.000000	89.042274
1494.000000	88.883976
1493.000000	88.811737
1492.000000	89.034062
1491.000000	89.082976
1490.000000	89.095320
1489.000000	89.091575
1488.000000	89.097156
1487.000000	89.073986
1486.000000	89.103393
1485.000000	89.083150
1484.000000	89.085913
1483.000000	88.905912
1482.000000	88.903445
1481.000000	88.897890
1480.000000	89.087762
1479.000000	89.096120
1478.000000	89.084305
1477.000000	89.049137
1476.000000	89.068636
1475.000000	89.046224
1474.000000	89.020451
1473.000000	88.987629
1472.000000	88.991142
1471.000000	88.990101
1470.000000	88.990288
1469.000000	88.982445
1468.000000	88.987064
1467.000000	88.793020
1466.000000	88.975405
1465.000000	88.956485
1464.000000	88.968959
1463.000000	88.944859
1462.000000	88.964032
1461.000000	88.952606
1460.000000	88.933819
1459.000000	88.927007
1458.000000	88.892691
1457.000000	88.905619
1456.000000	88.900162
1455.000000	88.881927
1454.000000	88.826700
1453.000000	88.824609
1452.000000	88.828462
1451.000000	88.801760
1450.000000	88.801418
1449.000000	88.762354
1448.000000	88.760215
1447.000000	88.741679
1446.000000	88.731669
1445.000000	88.726048
1444.000000	88.729220
1443.000000	88.710599
1442.000000	88.726440
1441.000000	88.652283
1440.000000	88.647572
1439.000000	88.438209
1438.000000	88.620214
1437.000000	88.591774
1436.000000	88.591024
1435.000000	88.534183
1434.000000	88.542339
1433.000000	88.519077
1432.000000	88.528396
1431.000000	88.492338
1430.000000	88.496246
1429.000000	88.448350
1428.000000	88.417831
1427.000000	88.395677
1426.000000	88.391568
1425.000000	88.349479
1424.000000	88.352997
1423.000000	88.333705
1422.000000	88.312446
1421.000000	88.282882
1420.000000	88.236346
1419.000000	88.045666
1418.000000	88.197481
1417.000000	88.200577
1416.000000	88.161899
1415.000000	88.100243
1414.000000	88.076530
1413.000000	88.062132
1412.000000	87.895523
1411.000000	88.005888
1410.000000	88.014294
1409.000000	87.943868
1408.000000	87.724632
1407.000000	87.886859
1406.000000	87.862192
1405.000000	87.817266
1404.000000	87.617171
1403.000000	87.784494
1402.000000	87.744470
1401.000000	87.709257
1400.000000	87.748829
1399.000000	87.672557
1398.000000	87.680620
1397.000000	87.630350
1396.000000	87.619303
1395.000000	87.581250
1394.000000	87.558775
1393.000000	87.527012
1392.000000	87.481595
1391.000000	87.425956
1390.000000	87.400265
1389.000000	87.378396
1388.000000	87.370410
1387.000000	87.349138
1386.000000	87.324403
1385.000000	87.304659
1384.000000	87.282688
1383.000000	87.261389
1382.000000	87.267684
1381.000000	87.237518
1380.000000	87.209962
1379.000000	87.174726
1378.000000	87.045052
1377.000000	87.006158
1376.000000	87.153715
1375.000000	87.121625
1374.000000	87.098204
1373.000000	87.095538
1372.000000	87.046647
1371.000000	87.036272
1370.000000	87.024233
1369.000000	87.005902
1368.000000	86.970595
1367.000000	86.907623
1366.000000	86.697171
1365.000000	86.665944
1364.000000	86.670862
1363.000000	86.707268
1362.000000	86.862533
1361.000000	86.829463
1360.000000	86.818342
1359.000000	86.726092
1358.000000	86.617110
1357.000000	86.791828
1356.000000	86.768945
1355.000000	86.754835
1354.000000	86.737035
1353.000000	86.728720
1352.000000	86.727919
1351.000000	86.700081
1350.000000	86.699253
1349.000000	86.703638
1348.000000	86.712513
1347.000000	86.699823
1346.000000	86.712969
1345.000000	86.706846
1344.000000	86.720188
1343.000000	86.731884
1342.000000	86.737792
1341.000000	86.748226
1340.000000	86.768735
1339.000000	86.777006
1338.000000	86.798016
1337.000000	86.798929
1336.000000	86.794467
1335.000000	86.858432
1334.000000	86.901362
1333.000000	86.811495
1332.000000	86.844649
1331.000000	86.844549
1330.000000	86.847980
1329.000000	86.855748
1328.000000	86.879119
1327.000000	86.897245
1326.000000	86.916507
1325.000000	86.916119
1324.000000	86.939536
1323.000000	86.947812
1322.000000	86.944299
1321.000000	86.944839
1320.000000	86.957465
1319.000000	86.974882
1318.000000	86.991411
1317.000000	86.994612
1316.000000	87.000678
1315.000000	87.023702
1314.000000	87.048578
1313.000000	87.105277
1312.000000	87.141779
1311.000000	87.097748
1310.000000	87.118912
1309.000000	87.134180
1308.000000	87.153636
1307.000000	87.179407
1306.000000	87.198140
1305.000000	87.218908
1304.000000	87.252273
1303.000000	87.274026
1302.000000	87.302021
1301.000000	87.323517
1300.000000	87.335689
1299.000000	87.357488
1298.000000	87.374407
1297.000000	87.396535
1296.000000	87.426141
1295.000000	87.527370
1294.000000	87.575062
1293.000000	87.537421
1292.000000	87.577530
1291.000000	87.594806
1290.000000	87.613344
1289.000000	87.665510
1288.000000	87.702183
1287.000000	87.702277
1286.000000	87.727765
1285.000000	87.771382
1284.000000	87.800549
1283.000000	87.840590
1282.000000	87.887094
1281.000000	87.928727
1280.000000	87.962169
1279.000000	87.990896
1278.000000	88.028530
1277.000000	88.083942
1276.000000	88.111220
1275.000000	88.140973
1274.000000	88.173865
1273.000000	88.208030
1272.000000	88.228850
1271.000000	88.241114
1270.000000	88.270975
1269.000000	88.313300
1268.000000	88.346347
1267.000000	88.381369
1266.000000	88.412341
1265.000000	88.441852
1264.000000	88.481373
1263.000000	88.520197
1262.000000	88.543177
1261.000000	88.573320
1260.000000	88.631753
1259.000000	88.680901
1258.000000	88.704985
1257.000000	88.742308
1256.000000	88.759957
1255.000000	88.779833
1254.000000	88.803386
1253.000000	88.819554
1252.000000	88.848940
1251.000000	88.908612
1250.000000	88.955365
1249.000000	88.985308
1248.000000	89.008553
1247.000000	89.015243
1246.000000	89.036705
1245.000000	89.078509
1244.000000	89.121919
1243.000000	89.154346
1242.000000	89.172879
1241.000000	89.207605
1240.000000	89.236057
1239.000000	89.254853
1238.000000	89.265271
1237.000000	89.286694
1236.000000	89.329158
1235.000000	89.350219
1234.000000	89.354662
1233.000000	89.380342
1232.000000	89.404566
1231.000000	89.430669
1230.000000	89.442104
1229.000000	89.466905
1228.000000	89.469424
1227.000000	89.479868
1226.000000	89.498910
1225.000000	89.508514
1224.000000	89.532553
1223.000000	89.548040
1222.000000	89.563030
1221.000000	89.577798
1220.000000	89.583924
1219.000000	89.607693
1218.000000	89.609624
1217.000000	89.610166
1216.000000	89.615545
1215.000000	89.623047
1214.000000	89.616496
1213.000000	89.641888
1212.000000	89.650687
1211.000000	89.631593
1210.000000	89.634734
1209.000000	89.646294
1208.000000	89.669225
1207.000000	89.694115
1206.000000	89.701581
1205.000000	89.703376
1204.000000	89.685817
1203.000000	89.656349
1202.000000	89.659272
1201.000000	89.651898
1200.000000	89.645968
1199.000000	89.632927
1198.000000	89.620440
1197.000000	89.608258
1196.000000	89.616930
1195.000000	89.593290
1194.000000	89.597537
1193.000000	89.591419
1192.000000	89.566587
1191.000000	89.552942
1190.000000	89.555967
1189.000000	89.482578
1188.000000	89.454395
1187.000000	89.452819
1186.000000	89.434532
1185.000000	89.431176
1184.000000	89.391284
1183.000000	89.411731
1182.000000	89.367958
1181.000000	89.339895
1180.000000	89.315045
1179.000000	89.291189
1178.000000	89.279606
1177.000000	89.271318
1176.000000	89.229775
1175.000000	89.216299
1174.000000	89.183550
1173.000000	89.171041
1172.000000	89.112289
1171.000000	89.096938
1170.000000	89.038806
1169.000000	89.024629
1168.000000	89.008942
1167.000000	89.003459
1166.000000	88.960337
1165.000000	88.951983
1164.000000	88.902834
1163.000000	88.868444
1162.000000	88.863214
1161.000000	88.728764
1160.000000	88.807996
1159.000000	88.774798
1158.000000	88.724392
1157.000000	88.712588
1156.000000	88.666992
1155.000000	88.630340
1154.000000	88.597424
1153.000000	88.552379
1152.000000	88.516283
1151.000000	88.521225
1150.000000	88.497115
1149.000000	88.471883
1148.000000	88.418876
1147.000000	88.407241
1146.000000	88.363313
1145.000000	88.333865
1144.000000	88.294742
1143.000000	88.266178
1142.000000	88.244650
1141.000000	88.234770
1140.000000	88.197507
1139.000000	88.067613
1138.000000	88.145892
1137.000000	88.148165
1136.000000	88.086280
1135.000000	88.106320
1134.000000	88.091224
1133.000000	88.060728
1132.000000	88.022608
1131.000000	88.003975
1130.000000	87.966446
1129.000000	87.850651
1128.000000	87.843042
1127.000000	87.976951
1126.000000	87.956177
1125.000000	87.953645
1124.000000	87.911638
1123.000000	87.892520
1122.000000	87.884242
1121.000000	87.869235
1120.000000	87.819456
1119.000000	87.814456
1118.000000	87.821008
1117.000000	87.835627
1116.000000	87.803227
1115.000000	87.806556
1114.000000	87.795493
1113.000000	87.798324
1112.000000	87.774411
1111.000000	87.764332
1110.000000	87.774611
1109.000000	87.814084
1108.000000	87.784239
1107.000000	87.807661
1106.000000	87.796693
1105.000000	87.830648
1104.000000	87.816917
1103.000000	87.837069
1102.000000	87.730247
1101.000000	87.753264
1100.000000	87.745589
1099.000000	87.831029
1098.000000	87.854452
1097.000000	87.875916
1096.000000	87.899441
1095.000000	87.886587
1094.000000	87.810003
1093.000000	87.850351
1092.000000	87.893493
1091.000000	87.998777
1090.000000	88.038544
1089.000000	88.085068
1088.000000	88.056225
1087.000000	87.964757
1086.000000	88.006890
1085.000000	88.137988
1084.000000	88.172999
1083.000000	88.228760
1082.000000	88.227982
1081.000000	88.156102
1080.000000	88.206559
1079.000000	88.342044
1078.000000	88.374370
1077.000000	88.424132
1076.000000	88.406366
1075.000000	88.336301
1074.000000	88.382869
1073.000000	88.510494
1072.000000	88.544833
1071.000000	88.599354
1070.000000	88.599572
1069.000000	88.536030
1068.000000	88.575840
1067.000000	88.647266
1066.000000	88.791102
1065.000000	88.830813
1064.000000	88.870679
1063.000000	88.872611
1062.000000	88.786333
1061.000000	88.818670
1060.000000	88.888839
1059.000000	89.035665
1058.000000	89.074283
1057.000000	89.066024
1056.000000	88.982347
1055.000000	89.076660
1054.000000	89.230433
1053.000000	89.220797
1052.000000	89.151279
1051.000000	89.191983
1050.000000	89.253062
1049.000000	89.388162
1048.000000	89.375448
1047.000000	89.316146
1046.000000	89.397829
1045.000000	89.548334
1044.000000	89.520465
1043.000000	89.426849
1042.000000	89.503720
1041.000000	89.625899
1040.000000	89.608272
1039.000000	89.545066
1038.000000	89.618444
1037.000000	89.661787
1036.000000	89.549200
1035.000000	89.640146
1034.000000	89.767852
1033.000000	89.732868
1032.000000	89.637491
1031.000000	89.640938
1030.000000	89.645071
1029.000000	89.670106
1028.000000	89.742033
1027.000000	89.791666
1026.000000	89.701649
1025.000000	89.698917
1024.000000	89.664736
1023.000000	89.646517
1022.000000	89.747849
1021.000000	89.783770
1020.000000	89.658452
1019.000000	89.561112
1018.000000	89.514227
1017.000000	89.699051
1016.000000	89.817542
1015.000000	89.733527
1014.000000	89.523496
1013.000000	89.491168
1012.000000	89.585680
1011.000000	89.562776
1010.000000	89.561766
1009.000000	89.552478
1008.000000	89.511715
1007.000000	89.497617
1006.000000	89.412865
1005.000000	89.388118
1004.000000	89.549257
1003.000000	89.547600
1002.000000	89.343398
1001.000000	89.319750
1000.000000	89.388710
999.000000	89.369219
998.000000	89.314375
997.000000	89.321386
996.000000	89.366733
995.000000	89.321461
994.000000	89.364594
993.000000	89.498582
992.000000	89.580335
991.000000	89.600528
990.000000	89.586730
989.000000	89.557553
988.000000	89.527782
987.000000	89.481290
986.000000	89.448736
985.000000	89.419233
984.000000	89.366334
983.000000	89.308174
982.000000	89.285868
981.000000	89.256325
980.000000	89.216724
979.000000	89.164707
978.000000	89.124388
977.000000	89.092027
976.000000	89.055920
975.000000	89.021750
974.000000	89.000691
973.000000	88.959125
972.000000	88.928876
971.000000	88.893677
970.000000	88.856940
969.000000	88.825449
968.000000	88.791460
967.000000	88.776502
966.000000	88.772085
965.000000	88.738090
964.000000	88.721254
963.000000	88.701409
962.000000	88.703258
961.000000	88.679318
960.000000	88.654279
959.000000	88.617757
958.000000	88.592640
957.000000	88.578300
956.000000	88.562430
955.000000	88.561078
954.000000	88.541271
953.000000	88.512892
952.000000	88.531290
951.000000	88.529881
950.000000	88.533955
949.000000	88.501433
948.000000	88.488078
947.000000	88.493942
946.000000	88.503237
945.000000	88.520301
944.000000	88.540983
943.000000	88.537812
942.000000	88.563207
941.000000	88.553005
940.000000	88.585873
939.000000	88.605798
938.000000	88.625270
937.000000	88.634652
936.000000	88.656140
935.000000	88.662038
934.000000	88.703418
933.000000	88.736136
932.000000	88.753834
931.000000	88.732342
930.000000	88.788956
929.000000	88.803204
928.000000	88.855030
927.000000	88.866945
926.000000	88.943735
925.000000	88.951084
924.000000	88.985486
923.000000	88.998329
922.000000	89.040598
921.000000	89.083396
920.000000	89.110908
919.000000	89.132156
918.000000	89.186769
917.000000	89.200639
916.000000	89.244964
915.000000	89.270681
914.000000	89.351058
913.000000	89.386757
912.000000	89.463016
911.000000	89.450306
910.000000	89.488610
909.000000	89.527241
908.000000	89.567012
907.000000	89.582036
906.000000	89.650418
905.000000	89.649483
904.000000	89.706395
903.000000	89.723342
902.000000	89.734521
901.000000	89.760963
900.000000	89.893721
899.000000	89.850521
898.000000	89.895014
897.000000	89.937651
896.000000	89.918904
895.000000	89.955354
894.000000	90.001291
893.000000	89.875327
892.000000	89.950677
891.000000	89.911204
890.000000	90.005685
889.000000	89.995213
888.000000	89.962657
887.000000	89.901195
886.000000	89.975329
885.000000	89.979223
884.000000	89.998203
883.000000	89.889747
882.000000	89.948772
881.000000	89.927713
880.000000	89.956275
879.000000	89.854933
878.000000	89.880569
877.000000	89.929548
876.000000	89.829903
875.000000	89.819295
874.000000	89.811125
873.000000	89.715787
872.000000	89.692138
871.000000	89.611133
870.000000	89.668681
869.000000	89.482680
868.000000	89.467846
867.000000	89.366083
866.000000	89.461155
865.000000	89.248780
864.000000	89.353059
863.000000	89.122948
862.000000	89.313153
861.000000	89.149390
860.000000	88.511696
859.000000	89.114645
858.000000	88.003436
857.000000	88.748133
856.000000	88.694811
855.000000	88.298143
854.000000	88.361073
853.000000	88.194495
852.000000	88.239550
851.000000	88.323327
850.000000	87.897603
849.000000	87.985307
848.000000	88.395528
847.000000	88.407481
846.000000	87.845294
845.000000	87.470515
844.000000	88.098896
843.000000	87.919613
842.000000	87.560563
841.000000	87.950859
840.000000	87.722350
839.000000	87.591321
838.000000	87.714496
837.000000	87.233188
836.000000	87.747120
835.000000	87.403622
834.000000	87.758756
833.000000	87.699811
832.000000	87.243518
831.000000	87.500645
830.000000	87.261444
829.000000	87.405739
828.000000	87.377845
827.000000	87.431322
826.000000	87.310851
825.000000	87.237779
824.000000	87.311222
823.000000	87.324551
822.000000	87.194457
821.000000	87.202065
820.000000	87.032996
819.000000	87.437902
818.000000	87.446138
817.000000	87.481960
816.000000	87.619933
815.000000	87.408146
814.000000	87.440766
813.000000	87.543803
812.000000	87.467186
811.000000	87.417358
810.000000	87.774876
809.000000	87.929650
808.000000	87.787910
807.000000	87.829934
806.000000	88.035239
805.000000	88.050114
804.000000	87.972788
803.000000	88.101503
802.000000	88.061943
801.000000	88.230448
800.000000	88.140047
799.000000	88.084550
798.000000	88.164208
797.000000	88.403227
796.000000	88.304556
795.000000	88.370486
794.000000	88.286059
793.000000	88.358440
792.000000	88.287770
791.000000	88.523263
790.000000	88.618987
789.000000	88.575998
788.000000	88.480690
787.000000	88.529290
786.000000	88.564859
785.000000	88.382066
784.000000	88.634959
783.000000	88.863515
782.000000	88.800049
781.000000	88.555517
780.000000	88.572157
779.000000	88.595683
778.000000	88.696957
777.000000	88.547454
776.000000	88.488514
775.000000	88.423340
774.000000	88.462535
773.000000	88.427656
772.000000	88.315632
771.000000	88.232144
770.000000	88.162395
769.000000	88.239714
768.000000	88.226739
767.000000	88.210251
766.000000	87.979298
765.000000	87.901232
764.000000	87.818965
763.000000	87.821305
762.000000	87.738093
761.000000	87.650565
760.000000	87.598064
759.000000	87.455894
758.000000	87.336992
757.000000	87.320412
756.000000	87.265672
755.000000	87.189865
754.000000	87.105544
753.000000	86.973872
752.000000	86.908636
751.000000	86.828610
750.000000	86.703242
749.000000	86.718957
748.000000	86.620027
747.000000	86.596081
746.000000	86.493265
745.000000	86.444666
744.000000	86.384547
743.000000	86.316462
742.000000	86.305145
741.000000	86.325277
740.000000	86.343399
739.000000	86.206120
738.000000	86.221787
737.000000	86.259086
736.000000	86.256413
735.000000	86.207210
734.000000	86.168288
733.000000	86.180827
732.000000	86.148176
731.000000	86.170413
730.000000	86.271374
729.000000	86.225843
728.000000	86.205140
727.000000	86.206669
726.000000	86.181155
725.000000	86.332085
724.000000	86.413320
723.000000	86.434821
722.000000	86.426068
721.000000	86.510529
720.000000	86.586391
719.000000	86.622360
718.000000	86.648437
717.000000	86.605217
716.000000	86.632400
715.000000	86.733855
714.000000	86.858826
713.000000	86.930022
712.000000	86.921992
711.000000	86.939316
710.000000	86.960798
709.000000	86.970155
708.000000	87.039267
707.000000	87.019019
706.000000	86.920514
705.000000	86.899833
704.000000	86.992328
703.000000	87.029540
702.000000	87.018868
701.000000	87.026294
700.000000	87.043412
699.000000	86.985833
698.000000	86.942701
697.000000	87.002621
696.000000	86.939650
695.000000	86.848225
694.000000	86.756601
693.000000	86.649924
692.000000	86.609834
691.000000	86.543683
690.000000	86.387368
689.000000	86.333582
688.000000	86.315744
687.000000	86.166426
686.000000	86.083289
685.000000	86.004632
684.000000	85.965878
683.000000	85.902150
682.000000	85.753619
681.000000	85.595381
680.000000	85.567917
679.000000	85.506928
678.000000	85.442752
677.000000	85.283643
676.000000	85.209761
675.000000	85.205187
674.000000	85.081996
673.000000	84.989252
672.000000	84.911512
671.000000	84.892266
670.000000	84.935524
669.000000	84.906984
668.000000	84.856591
667.000000	84.768384
666.000000	84.719887
665.000000	84.791420
664.000000	84.698281
663.000000	84.675460
662.000000	84.698417
661.000000	84.701910
660.000000	84.604966
659.000000	84.626093
658.000000	84.644186
657.000000	84.690953
656.000000	84.708540
655.000000	84.816216
654.000000	84.846866
653.000000	84.860367
652.000000	84.904312
651.000000	84.985447
650.000000	84.979474
649.000000	85.023187
648.000000	85.088233
647.000000	85.096733
646.000000	85.138319
645.000000	85.173204
644.000000	85.142590
643.000000	85.116871
642.000000	85.079725
641.000000	85.176481
640.000000	85.186120
639.000000	85.208251
638.000000	85.181535
637.000000	85.215849
636.000000	85.125496
635.000000	85.050403
634.000000	85.148600
633.000000	85.077608
632.000000	85.025064
631.000000	84.956410
630.000000	84.821325
629.000000	84.719907
628.000000	84.612846
627.000000	84.498084
626.000000	84.541530
625.000000	84.467335
624.000000	84.284072
623.000000	84.146272
622.000000	84.087080
621.000000	84.069832
620.000000	83.974721
619.000000	83.816163
618.000000	83.756576
617.000000	83.682841
616.000000	83.579937
615.000000	83.509314
614.000000	83.467226
613.000000	83.401793
612.000000	83.282312
611.000000	83.269412
610.000000	83.211610
609.000000	83.183214
608.000000	83.152535
607.000000	83.190040
606.000000	83.207573
605.000000	83.145063
604.000000	83.188693
603.000000	83.187034
602.000000	83.234994
601.000000	83.240170
600.000000	83.367080
599.000000	83.378000
598.000000	83.433836
597.000000	83.404649
596.000000	83.505834
595.000000	83.560734
594.000000	83.560461
593.000000	83.572948
592.000000	83.602477
591.000000	83.650462
590.000000	83.608451
589.000000	83.671380
588.000000	83.663890
587.000000	83.702870
586.000000	83.634752
585.000000	83.569240
584.000000	83.586293
583.000000	83.460062
582.000000	83.413571
581.000000	83.385865
580.000000	83.301713
579.000000	83.254652
578.000000	83.221742
577.000000	83.020965
576.000000	82.893545
575.000000	82.789317
574.000000	82.724036
573.000000	82.611125
572.000000	82.470146
571.000000	82.467119
570.000000	82.324105
569.000000	82.256069
568.000000	82.195513
567.000000	82.155662
566.000000	82.013581
565.000000	81.862266
564.000000	81.889930
563.000000	81.960894
562.000000	81.947258
561.000000	82.001683
560.000000	82.002992
559.000000	82.059137
558.000000	82.070980
557.000000	82.042348
556.000000	82.053587
555.000000	82.180298
554.000000	82.227568
553.000000	82.306512
552.000000	82.369108
551.000000	82.444789
550.000000	82.477822
549.000000	82.550329
548.000000	82.535745
547.000000	82.560985
546.000000	82.633872
545.000000	82.611017
544.000000	82.592125
543.000000	82.576665
542.000000	82.506836
541.000000	82.473517
540.000000	82.416928
539.000000	82.267881
538.000000	82.237392
537.000000	82.086614
536.000000	81.967140
535.000000	81.860177
534.000000	81.716107
533.000000	81.552794
532.000000	81.486998
531.000000	81.349113
530.000000	81.217928
529.000000	81.154017
528.000000	81.067769
527.000000	80.971749
526.000000	80.879705
525.000000	80.850069
524.000000	80.810996
523.000000	80.834782
522.000000	80.776780
521.000000	80.759228
520.000000	80.775135
519.000000	80.809320
518.000000	80.845578
517.000000	80.886050
516.000000	80.941775
515.000000	81.017132
514.000000	81.043936
513.000000	81.044716
512.000000	81.021854
511.000000	81.001440
510.000000	81.047493
509.000000	81.018202
508.000000	81.039875
507.000000	80.989770
506.000000	80.848592
505.000000	80.808365
504.000000	80.741473
503.000000	80.604214
502.000000	80.495451
501.000000	80.336094
500.000000	80.274392
499.000000	80.184233
498.000000	80.027447
497.000000	79.907945
496.000000	79.887312
495.000000	79.786658
494.000000	79.718473
493.000000	79.709903
492.000000	79.600968
491.000000	79.668224
490.000000	79.712435
489.000000	79.703113
488.000000	79.789934
487.000000	79.801761
486.000000	79.852043
485.000000	79.897881
484.000000	79.946744
483.000000	80.094349
482.000000	80.051265
481.000000	79.986229
480.000000	79.914264
479.000000	79.782507
478.000000	79.654990
477.000000	79.562269
476.000000	79.440693
475.000000	79.277559
474.000000	79.138835
473.000000	78.919966
472.000000	78.717298
471.000000	78.475187
470.000000	78.315227
469.000000	78.183943
468.000000	78.035030
467.000000	77.899921
466.000000	77.784359
465.000000	77.718051
464.000000	77.679006
463.000000	77.617260
462.000000	77.563295
461.000000	77.583323
460.000000	77.581617
459.000000	77.566868
458.000000	77.499960
457.000000	77.438552
456.000000	77.343225
455.000000	77.238934
454.000000	77.161480
453.000000	76.998205
452.000000	76.832359
451.000000	76.638849
450.000000	76.369156
449.000000	76.151707
448.000000	75.913123
447.000000	75.677719
446.000000	75.495672
445.000000	75.339053
444.000000	75.193402
443.000000	75.094967
442.000000	74.970238
441.000000	74.740432
440.000000	74.525772
439.000000	74.416317
438.000000	74.278934
437.000000	74.063581
436.000000	73.837777
435.000000	73.565419
434.000000	73.254438
433.000000	72.873232
432.000000	72.458040
431.000000	71.950549
430.000000	71.462630
429.000000	70.995907
428.000000	70.390604
427.000000	69.742605
426.000000	69.097765
425.000000	68.424375
424.000000	67.822107
423.000000	67.146370
422.000000	66.258732
421.000000	65.355771
420.000000	64.459733
419.000000	63.506003
418.000000	62.528062
417.000000	61.601310
416.000000	60.740125
415.000000	59.921137
414.000000	59.236014
413.000000	58.619603
412.000000	58.199496
411.000000	57.990067
410.000000	57.767097
409.000000	57.638078
408.000000	57.650252
407.000000	57.724162
406.000000	57.831604
405.000000	58.012968
404.000000	58.243397
403.000000	58.587770
402.000000	58.948616
401.000000	59.323679
400.000000	59.739486
399.000000	60.089782
398.000000	60.382588
397.000000	60.786440
396.000000	61.192691
395.000000	61.521057
394.000000	61.915627
393.000000	62.295864
392.000000	62.617797
391.000000	62.912341
390.000000	63.222075
389.000000	63.572622
388.000000	63.771101
387.000000	63.986736
386.000000	64.415187
385.000000	64.727636
384.000000	64.926147
383.000000	65.296228
382.000000	65.611184
381.000000	65.974792
380.000000	66.313761
379.000000	66.969632
378.000000	67.289970
377.000000	67.540199
376.000000	68.044670
375.000000	68.942001
374.000000	70.047752
373.000000	70.967570
372.000000	71.535688
371.000000	72.583604
370.000000	73.791848
369.000000	75.163510
368.000000	76.353140
367.000000	77.946284
366.000000	78.650869
365.000000	79.512018
364.000000	80.564799
363.000000	82.055387
362.000000	82.599882
361.000000	83.811223
360.000000	85.139385
359.000000	85.831645
358.000000	86.102246
357.000000	86.949826
356.000000	87.554187
355.000000	88.188391
354.000000	88.811383
353.000000	89.689576
352.000000	91.101675
351.000000	91.099300
350.000000	92.135655
349.000000	93.127196
348.000000	94.245263
347.000000	94.510577
346.000000	94.433431
345.000000	96.196803
344.000000	95.869943
343.000000	95.421249
342.000000	96.311063
341.000000	95.782121
340.000000	96.378165
339.000000	95.701549
338.000000	96.187688
337.000000	96.074088
336.000000	95.790336
335.000000	95.270579
334.000000	95.700067
333.000000	94.650099
332.000000	94.688851
331.000000	94.406515
330.000000	95.150348
329.000000	94.613830
328.000000	94.641868
327.000000	94.188590
326.000000	94.071129
325.000000	94.466239
324.000000	94.011462
323.000000	93.827425
322.000000	93.949566
321.000000	93.929919
320.000000	93.957656
319.000000	94.022634
318.000000	93.898967
317.000000	94.364956
316.000000	94.178133
315.000000	94.287389
314.000000	94.401846
313.000000	94.525631
312.000000	94.419896
311.000000	94.507170
310.000000	94.569888
309.000000	94.936906
308.000000	95.573590
307.000000	95.993176
306.000000	96.931705
305.000000	97.686993
304.000000	98.714028
303.000000	99.406642
302.000000	99.597283
301.000000	99.816141
300.000000	100.413356
299.000000	100.889260
298.000000	101.507202
297.000000	102.132339
296.000000	103.006684
295.000000	103.665780
294.000000	104.425259
293.000000	105.131904
292.000000	105.910422
291.000000	107.107722
290.000000	108.131041
289.000000	109.297591
288.000000	110.287809
287.000000	111.445632
286.000000	112.521603
285.000000	113.184431
284.000000	114.664545
283.000000	115.291702
282.000000	115.732842
281.000000	116.560208
280.000000	117.089357
279.000000	117.790066
278.000000	118.101135
277.000000	118.443871
276.000000	118.662726
275.000000	118.635765
274.000000	119.109731
273.000000	119.638847
272.000000	119.815857
271.000000	119.923341
270.000000	120.358821
269.000000	120.133883
268.000000	121.046574
267.000000	121.394594
266.000000	121.766182
265.000000	122.720176
264.000000	123.889339
263.000000	124.952594
262.000000	126.178953
261.000000	127.230806
260.000000	128.595165
259.000000	130.030336
258.000000	131.153286
257.000000	132.743917
256.000000	134.462323
255.000000	136.446133
254.000000	137.960490
253.000000	139.645861
252.000000	141.684619
251.000000	143.940316
250.000000	146.556663
249.000000	148.770041
248.000000	150.552684
247.000000	152.113789
246.000000	153.307443
245.000000	155.704185
244.000000	158.018522
243.000000	160.287780
242.000000	162.167128
241.000000	165.848663
240.000000	168.650766
239.000000	171.299626
238.000000	174.876471
237.000000	178.192527
236.000000	182.436421
235.000000	187.230318
234.000000	192.344641
233.000000	197.060128
232.000000	200.697207
231.000000	204.303390
230.000000	208.371217
229.000000	212.690616
228.000000	216.147067
227.000000	220.239115
226.000000	224.764891
225.000000	228.430903
224.000000	232.644294
223.000000	236.580009
222.000000	239.711529
221.000000	243.530649
220.000000	246.642526
219.000000	249.151110
218.000000	252.495305
217.000000	256.365716
216.000000	259.158338
215.000000	262.381868
214.000000	265.724484
213.000000	270.584161
212.000000	274.849349
211.000000	280.780694
210.000000	287.073417
209.000000	293.846477
208.000000	301.656775
207.000000	310.445945
206.000000	319.386036
205.000000	330.588613
204.000000	342.949013
203.000000	355.938391
202.000000	370.004946
201.000000	385.516366
200.000000	402.373181
