PE UV       SUBTECH     SPECTRUM    ASCII       PEDS        4.00        
   -1
e.Sample.asc
22/05/06
15:54:34.00
22/05/06
15:54:34.00
Administrator

200.000000
1
Lambda 1050
1050L1808311
PerkinElmer UV WinLab 6.4.0.973 / 2.02.11 Lambda 900 UV/VIS/NIR. May 23 2018 11:23:04

0
0
3350/servo 860.8/2
0
0
UV/VIS
1
1
1
CommonBeamDepol.RBeamAtt.SBeamAtt.60mm sphere
0
0
0
0
Program
Program
3350/servo 860.8/2
3350/0.2 860.8/0.2
3350/0.2 860.8/0.2
0
1.00
 
 
 
0
 
860.8
319.2
860.8
Front
100
on
S:100 R:100
 
0
0
0
 
0
 
 
 
0
 
 
0
0
0
0
0
 
 
 
 
0
0


0
0
#HDR
-1
-1
#GR
nm
%T
1.0
0.0
2000.000000
-1.000000
1801
8
401.116702
58.493224
#DATA
2000.000000	86.950900
1999.000000	86.898561
1998.000000	86.995022
1997.000000	86.956936
1996.000000	86.993421
1995.000000	87.004956
1994.000000	86.986950
1993.000000	86.956917
1992.000000	87.029536
1991.000000	87.022339
1990.000000	86.998480
1989.000000	87.017959
1988.000000	87.011353
1987.000000	87.012763
1986.000000	87.084012
1985.000000	87.011492
1984.000000	87.119649
1983.000000	87.111992
1982.000000	87.089530
1981.000000	87.100905
1980.000000	87.130445
1979.000000	87.172760
1978.000000	87.198900
1977.000000	87.143542
1976.000000	87.211163
1975.000000	87.198321
1974.000000	87.268351
1973.000000	87.211605
1972.000000	87.220495
1971.000000	87.244784
1970.000000	87.228833
1969.000000	87.296831
1968.000000	87.371918
1967.000000	87.291312
1966.000000	87.334307
1965.000000	87.369218
1964.000000	87.368191
1963.000000	87.379887
1962.000000	87.419353
1961.000000	87.392354
1960.000000	87.394431
1959.000000	87.400331
1958.000000	87.522651
1957.000000	87.489053
1956.000000	87.552483
1955.000000	87.536917
1954.000000	87.573038
1953.000000	87.536299
1952.000000	87.568900
1951.000000	87.562042
1950.000000	87.625123
1949.000000	87.639536
1948.000000	87.643042
1947.000000	87.645423
1946.000000	87.637007
1945.000000	87.600720
1944.000000	87.697684
1943.000000	87.667398
1942.000000	87.719494
1941.000000	87.735001
1940.000000	87.737774
1939.000000	87.722280
1938.000000	87.787999
1937.000000	87.805513
1936.000000	87.833962
1935.000000	87.812292
1934.000000	87.841773
1933.000000	87.851219
1932.000000	87.876320
1931.000000	87.926950
1930.000000	87.893578
1929.000000	87.885877
1928.000000	87.960793
1927.000000	87.928177
1926.000000	87.920590
1925.000000	87.960990
1924.000000	87.990637
1923.000000	87.964816
1922.000000	88.004212
1921.000000	88.010262
1920.000000	88.049364
1919.000000	88.026711
1918.000000	88.010583
1917.000000	88.009979
1916.000000	88.076758
1915.000000	88.105540
1914.000000	88.064960
1913.000000	88.054624
1912.000000	88.064188
1911.000000	88.078975
1910.000000	88.110776
1909.000000	88.072966
1908.000000	88.114041
1907.000000	88.060902
1906.000000	88.094660
1905.000000	88.086355
1904.000000	88.113900
1903.000000	88.076451
1902.000000	88.034898
1901.000000	88.049437
1900.000000	88.080504
1899.000000	88.100367
1898.000000	88.108314
1897.000000	88.114797
1896.000000	88.133873
1895.000000	88.116625
1894.000000	88.131574
1893.000000	88.173355
1892.000000	88.181526
1891.000000	88.125454
1890.000000	88.139392
1889.000000	88.160617
1888.000000	88.197108
1887.000000	88.236108
1886.000000	88.256793
1885.000000	88.273894
1884.000000	88.289840
1883.000000	88.247395
1882.000000	88.180192
1881.000000	88.190960
1880.000000	88.235828
1879.000000	88.245615
1878.000000	88.257532
1877.000000	88.248997
1876.000000	88.274246
1875.000000	88.243421
1874.000000	88.211302
1873.000000	88.205427
1872.000000	88.252925
1871.000000	88.255203
1870.000000	88.241054
1869.000000	88.274187
1868.000000	88.299071
1867.000000	88.265075
1866.000000	88.265173
1865.000000	88.279877
1864.000000	88.292943
1863.000000	88.353903
1862.000000	88.347688
1861.000000	88.327868
1860.000000	88.376812
1859.000000	88.373763
1858.000000	88.335385
1857.000000	88.364504
1856.000000	88.366758
1855.000000	88.349014
1854.000000	88.371253
1853.000000	88.389592
1852.000000	88.415822
1851.000000	88.443247
1850.000000	88.413691
1849.000000	88.436752
1848.000000	88.436744
1847.000000	88.440371
1846.000000	88.421048
1845.000000	88.416343
1844.000000	88.418845
1843.000000	88.402771
1842.000000	88.400573
1841.000000	88.405821
1840.000000	88.413514
1839.000000	88.404446
1838.000000	88.397189
1837.000000	88.426760
1836.000000	88.456083
1835.000000	88.432741
1834.000000	88.400214
1833.000000	88.393784
1832.000000	88.387344
1831.000000	88.410639
1830.000000	88.425941
1829.000000	88.453890
1828.000000	88.444245
1827.000000	88.428409
1826.000000	88.431464
1825.000000	88.462849
1824.000000	88.438641
1823.000000	88.439334
1822.000000	88.420083
1821.000000	88.401065
1820.000000	88.376935
1819.000000	88.399610
1818.000000	88.404848
1817.000000	88.415180
1816.000000	88.450482
1815.000000	88.475132
1814.000000	88.460292
1813.000000	88.450798
1812.000000	88.433805
1811.000000	88.433061
1810.000000	88.427548
1809.000000	88.446655
1808.000000	88.448362
1807.000000	88.441197
1806.000000	88.413738
1805.000000	88.417220
1804.000000	88.412612
1803.000000	88.425361
1802.000000	88.420763
1801.000000	88.413522
1800.000000	88.405373
1799.000000	88.438249
1798.000000	88.424001
1797.000000	88.408749
1796.000000	88.407959
1795.000000	88.398932
1794.000000	88.402667
1793.000000	88.406171
1792.000000	88.398181
1791.000000	88.434424
1790.000000	88.408284
1789.000000	88.375165
1788.000000	88.390468
1787.000000	88.379216
1786.000000	88.342182
1785.000000	88.341295
1784.000000	88.343451
1783.000000	88.349148
1782.000000	88.340430
1781.000000	88.343521
1780.000000	88.324587
1779.000000	88.321645
1778.000000	88.306515
1777.000000	88.302473
1776.000000	88.292401
1775.000000	88.301907
1774.000000	88.307027
1773.000000	88.305312
1772.000000	88.295658
1771.000000	88.302212
1770.000000	88.274502
1769.000000	88.282093
1768.000000	88.241574
1767.000000	88.249563
1766.000000	88.262703
1765.000000	88.241891
1764.000000	88.219316
1763.000000	88.247087
1762.000000	88.234060
1761.000000	88.236561
1760.000000	88.209545
1759.000000	88.217851
1758.000000	88.196224
1757.000000	88.200404
1756.000000	88.192604
1755.000000	88.171284
1754.000000	88.130472
1753.000000	88.126943
1752.000000	88.101649
1751.000000	88.079772
1750.000000	88.100568
1749.000000	88.113425
1748.000000	88.079815
1747.000000	88.084500
1746.000000	88.076829
1745.000000	88.099407
1744.000000	88.091999
1743.000000	88.050409
1742.000000	88.046474
1741.000000	88.071088
1740.000000	88.028743
1739.000000	88.019096
1738.000000	88.013694
1737.000000	87.990886
1736.000000	87.980432
1735.000000	87.948379
1734.000000	87.953846
1733.000000	87.946006
1732.000000	87.914542
1731.000000	87.912241
1730.000000	87.892145
1729.000000	87.920951
1728.000000	87.855686
1727.000000	87.837983
1726.000000	87.850202
1725.000000	87.856913
1724.000000	87.796166
1723.000000	87.820713
1722.000000	87.786707
1721.000000	87.806142
1720.000000	87.778817
1719.000000	87.772144
1718.000000	87.737389
1717.000000	87.718299
1716.000000	87.641005
1715.000000	87.680423
1714.000000	87.664233
1713.000000	87.663318
1712.000000	87.631530
1711.000000	87.640744
1710.000000	87.584699
1709.000000	87.589696
1708.000000	87.544453
1707.000000	87.561970
1706.000000	87.547490
1705.000000	87.485768
1704.000000	87.462985
1703.000000	87.420834
1702.000000	87.414075
1701.000000	87.408918
1700.000000	87.332480
1699.000000	87.321514
1698.000000	87.281110
1697.000000	87.266466
1696.000000	87.213717
1695.000000	87.229253
1694.000000	87.164883
1693.000000	87.185154
1692.000000	87.147895
1691.000000	87.122907
1690.000000	87.064799
1689.000000	87.071964
1688.000000	87.007161
1687.000000	87.036850
1686.000000	87.005254
1685.000000	86.996633
1684.000000	86.963194
1683.000000	86.958347
1682.000000	86.933623
1681.000000	86.928143
1680.000000	86.892374
1679.000000	86.888783
1678.000000	86.843556
1677.000000	86.856279
1676.000000	86.811864
1675.000000	86.817493
1674.000000	86.799246
1673.000000	86.827508
1672.000000	86.816136
1671.000000	86.805937
1670.000000	86.783000
1669.000000	86.759616
1668.000000	86.763764
1667.000000	86.783420
1666.000000	86.767285
1665.000000	86.734434
1664.000000	86.754975
1663.000000	86.753713
1662.000000	86.720652
1661.000000	86.725247
1660.000000	86.711801
1659.000000	86.711377
1658.000000	86.698771
1657.000000	86.668422
1656.000000	86.647381
1655.000000	86.653137
1654.000000	86.617271
1653.000000	86.607023
1652.000000	86.579024
1651.000000	86.579913
1650.000000	86.562916
1649.000000	86.560424
1648.000000	86.531598
1647.000000	86.534083
1646.000000	86.528250
1645.000000	86.510591
1644.000000	86.477188
1643.000000	86.478253
1642.000000	86.441077
1641.000000	86.443011
1640.000000	86.425505
1639.000000	86.415055
1638.000000	86.403291
1637.000000	86.395818
1636.000000	86.369618
1635.000000	86.375467
1634.000000	86.335047
1633.000000	86.326047
1632.000000	86.330820
1631.000000	86.324649
1630.000000	86.306958
1629.000000	86.291480
1628.000000	86.276285
1627.000000	86.272237
1626.000000	86.245625
1625.000000	86.237225
1624.000000	86.248702
1623.000000	86.243452
1622.000000	86.225358
1621.000000	86.211880
1620.000000	86.205010
1619.000000	86.193084
1618.000000	86.168807
1617.000000	86.178540
1616.000000	86.156609
1615.000000	86.132930
1614.000000	86.125620
1613.000000	86.117504
1612.000000	86.093900
1611.000000	86.101528
1610.000000	86.093432
1609.000000	86.095519
1608.000000	86.079420
1607.000000	86.072895
1606.000000	86.066859
1605.000000	86.059244
1604.000000	86.037602
1603.000000	86.026599
1602.000000	86.027507
1601.000000	86.015182
1600.000000	86.010147
1599.000000	86.004818
1598.000000	85.995363
1597.000000	85.997897
1596.000000	85.987485
1595.000000	85.974784
1594.000000	85.961266
1593.000000	85.968733
1592.000000	85.962367
1591.000000	85.943498
1590.000000	85.925706
1589.000000	85.916515
1588.000000	85.928118
1587.000000	85.935589
1586.000000	85.935541
1585.000000	85.931168
1584.000000	85.916442
1583.000000	85.919127
1582.000000	85.921256
1581.000000	85.921957
1580.000000	85.917533
1579.000000	85.889036
1578.000000	85.871890
1577.000000	85.883757
1576.000000	85.883176
1575.000000	85.881368
1574.000000	85.878459
1573.000000	85.884527
1572.000000	85.883248
1571.000000	85.875047
1570.000000	85.879199
1569.000000	85.880314
1568.000000	85.880651
1567.000000	85.891808
1566.000000	85.897247
1565.000000	85.893543
1564.000000	85.890525
1563.000000	85.889857
1562.000000	85.897739
1561.000000	85.898017
1560.000000	85.891563
1559.000000	85.891070
1558.000000	85.902834
1557.000000	85.902215
1556.000000	85.904233
1555.000000	85.892226
1554.000000	85.804985
1553.000000	85.685531
1552.000000	85.521233
1551.000000	85.450180
1550.000000	85.470460
1549.000000	85.474770
1548.000000	85.486132
1547.000000	85.492604
1546.000000	85.494003
1545.000000	85.487172
1544.000000	85.500634
1543.000000	85.513900
1542.000000	85.505645
1541.000000	85.505610
1540.000000	85.536511
1539.000000	85.419597
1538.000000	85.350886
1537.000000	85.378363
1536.000000	85.477712
1535.000000	85.599653
1534.000000	85.643735
1533.000000	85.654812
1532.000000	85.678745
1531.000000	85.686580
1530.000000	85.719852
1529.000000	85.730089
1528.000000	85.579952
1527.000000	85.510731
1526.000000	85.534988
1525.000000	85.552555
1524.000000	85.692823
1523.000000	85.757585
1522.000000	85.759825
1521.000000	85.768369
1520.000000	85.627458
1519.000000	85.579381
1518.000000	85.757227
1517.000000	85.849312
1516.000000	85.871996
1515.000000	85.872471
1514.000000	85.736939
1513.000000	85.855792
1512.000000	85.943158
1511.000000	85.939914
1510.000000	85.965814
1509.000000	85.806880
1508.000000	85.935886
1507.000000	86.022113
1506.000000	86.040775
1505.000000	85.868830
1504.000000	86.019322
1503.000000	86.100301
1502.000000	86.114488
1501.000000	86.124794
1500.000000	86.141188
1499.000000	86.152224
1498.000000	86.177240
1497.000000	86.207490
1496.000000	86.237521
1495.000000	86.246215
1494.000000	86.110327
1493.000000	86.078167
1492.000000	86.276497
1491.000000	86.350478
1490.000000	86.370117
1489.000000	86.390192
1488.000000	86.411534
1487.000000	86.441355
1486.000000	86.473696
1485.000000	86.467339
1484.000000	86.318356
1483.000000	86.299491
1482.000000	86.336462
1481.000000	86.348835
1480.000000	86.574902
1479.000000	86.598731
1478.000000	86.623565
1477.000000	86.608904
1476.000000	86.663845
1475.000000	86.661869
1474.000000	86.681182
1473.000000	86.694990
1472.000000	86.694428
1471.000000	86.727288
1470.000000	86.751187
1469.000000	86.783234
1468.000000	86.826285
1467.000000	86.665544
1466.000000	86.879070
1465.000000	86.899144
1464.000000	86.919371
1463.000000	86.927774
1462.000000	86.984106
1461.000000	87.006670
1460.000000	87.036260
1459.000000	87.054693
1458.000000	87.081339
1457.000000	87.100926
1456.000000	87.130349
1455.000000	87.151769
1454.000000	86.964579
1453.000000	87.168048
1452.000000	87.237466
1451.000000	87.252970
1450.000000	87.299058
1449.000000	87.307036
1448.000000	87.355458
1447.000000	87.340687
1446.000000	87.377509
1445.000000	87.409908
1444.000000	87.441281
1443.000000	87.462444
1442.000000	87.481167
1441.000000	87.263539
1440.000000	87.328309
1439.000000	87.337501
1438.000000	87.560653
1437.000000	87.569289
1436.000000	87.625288
1435.000000	87.606999
1434.000000	87.658113
1433.000000	87.678140
1432.000000	87.703849
1431.000000	87.723218
1430.000000	87.788613
1429.000000	87.784200
1428.000000	87.793565
1427.000000	87.804631
1426.000000	87.842316
1425.000000	87.838009
1424.000000	87.863460
1423.000000	87.907811
1422.000000	87.912090
1421.000000	87.823878
1420.000000	87.946301
1419.000000	87.767075
1418.000000	87.768094
1417.000000	87.970256
1416.000000	87.982272
1415.000000	87.963831
1414.000000	87.795977
1413.000000	88.017034
1412.000000	87.871482
1411.000000	87.885940
1410.000000	88.059705
1409.000000	88.075410
1408.000000	87.876020
1407.000000	88.052848
1406.000000	88.075074
1405.000000	88.073200
1404.000000	87.892468
1403.000000	87.882963
1402.000000	87.877192
1401.000000	87.902070
1400.000000	88.120237
1399.000000	88.136009
1398.000000	88.156048
1397.000000	88.155353
1396.000000	88.154829
1395.000000	88.134435
1394.000000	88.161581
1393.000000	88.148411
1392.000000	88.152334
1391.000000	88.133406
1390.000000	88.127194
1389.000000	88.159669
1388.000000	88.155314
1387.000000	88.147992
1386.000000	88.147672
1385.000000	88.143828
1384.000000	88.138844
1383.000000	88.174263
1382.000000	88.208401
1381.000000	88.190837
1380.000000	88.145280
1379.000000	88.029270
1378.000000	87.925628
1377.000000	88.052508
1376.000000	88.217270
1375.000000	88.190301
1374.000000	88.153121
1373.000000	87.950740
1372.000000	87.941906
1371.000000	87.936958
1370.000000	87.916608
1369.000000	87.902342
1368.000000	87.883820
1367.000000	87.857494
1366.000000	87.859022
1365.000000	87.828780
1364.000000	87.830664
1363.000000	87.841931
1362.000000	88.001201
1361.000000	87.935491
1360.000000	87.794660
1359.000000	87.890069
1358.000000	87.714009
1357.000000	87.796794
1356.000000	87.960767
1355.000000	87.934500
1354.000000	87.927018
1353.000000	87.921429
1352.000000	87.913105
1351.000000	87.890243
1350.000000	87.877379
1349.000000	87.898715
1348.000000	87.917489
1347.000000	87.919939
1346.000000	87.939392
1345.000000	87.951972
1344.000000	87.898304
1343.000000	87.845636
1342.000000	87.983795
1341.000000	88.012840
1340.000000	87.922667
1339.000000	87.916406
1338.000000	87.895069
1337.000000	87.891067
1336.000000	87.888501
1335.000000	87.918333
1334.000000	87.953486
1333.000000	87.862425
1332.000000	87.867468
1331.000000	87.827980
1330.000000	87.799603
1329.000000	87.803914
1328.000000	87.796823
1327.000000	87.768881
1326.000000	87.743671
1325.000000	87.724545
1324.000000	87.715168
1323.000000	87.701602
1322.000000	87.670322
1321.000000	87.632824
1320.000000	87.647511
1319.000000	87.654345
1318.000000	87.596289
1317.000000	87.576209
1316.000000	87.550104
1315.000000	87.531916
1314.000000	87.517112
1313.000000	87.530721
1312.000000	87.528439
1311.000000	87.446003
1310.000000	87.422471
1309.000000	87.404461
1308.000000	87.385299
1307.000000	87.363539
1306.000000	87.342428
1305.000000	87.317611
1304.000000	87.293150
1303.000000	87.272521
1302.000000	87.250411
1301.000000	87.224380
1300.000000	87.198667
1299.000000	87.176932
1298.000000	87.160623
1297.000000	87.137437
1296.000000	87.114689
1295.000000	87.157502
1294.000000	87.161141
1293.000000	87.087730
1292.000000	87.084467
1291.000000	87.057474
1290.000000	87.010272
1289.000000	87.054825
1288.000000	87.041854
1287.000000	86.955069
1286.000000	86.942263
1285.000000	86.938592
1284.000000	86.933264
1283.000000	86.915165
1282.000000	86.898745
1281.000000	86.956967
1280.000000	86.989984
1279.000000	86.903856
1278.000000	86.844721
1277.000000	86.844835
1276.000000	86.824128
1275.000000	86.811026
1274.000000	86.789575
1273.000000	86.777155
1272.000000	86.752843
1271.000000	86.731676
1270.000000	86.765830
1269.000000	86.736939
1268.000000	86.674716
1267.000000	86.656303
1266.000000	86.650095
1265.000000	86.620273
1264.000000	86.604307
1263.000000	86.594576
1262.000000	86.573347
1261.000000	86.573109
1260.000000	86.565969
1259.000000	86.563416
1258.000000	86.555413
1257.000000	86.557264
1256.000000	86.540738
1255.000000	86.521953
1254.000000	86.518525
1253.000000	86.509260
1252.000000	86.506550
1251.000000	86.514446
1250.000000	86.557006
1249.000000	86.512864
1248.000000	86.489361
1247.000000	86.467986
1246.000000	86.464520
1245.000000	86.475241
1244.000000	86.543505
1243.000000	86.507903
1242.000000	86.474400
1241.000000	86.481522
1240.000000	86.471375
1239.000000	86.471531
1238.000000	86.469515
1237.000000	86.478492
1236.000000	86.471905
1235.000000	86.478605
1234.000000	86.460731
1233.000000	86.475889
1232.000000	86.472514
1231.000000	86.470591
1230.000000	86.470869
1229.000000	86.480447
1228.000000	86.470410
1227.000000	86.481861
1226.000000	86.487731
1225.000000	86.492738
1224.000000	86.498076
1223.000000	86.534432
1222.000000	86.517298
1221.000000	86.534581
1220.000000	86.529135
1219.000000	86.566871
1218.000000	86.560307
1217.000000	86.563892
1216.000000	86.571456
1215.000000	86.600817
1214.000000	86.617853
1213.000000	86.649719
1212.000000	86.659209
1211.000000	86.735370
1210.000000	86.702498
1209.000000	86.624762
1208.000000	86.622800
1207.000000	86.757134
1206.000000	86.790889
1205.000000	86.820913
1204.000000	86.821267
1203.000000	86.923947
1202.000000	86.883900
1201.000000	86.879589
1200.000000	86.883711
1199.000000	86.910239
1198.000000	86.922033
1197.000000	86.931252
1196.000000	86.992339
1195.000000	86.997239
1194.000000	87.012642
1193.000000	87.043490
1192.000000	87.052155
1191.000000	87.090578
1190.000000	87.131651
1189.000000	87.143465
1188.000000	87.152687
1187.000000	87.186931
1186.000000	87.206055
1185.000000	87.244448
1184.000000	87.262396
1183.000000	87.323436
1182.000000	87.346380
1181.000000	87.374821
1180.000000	87.388704
1179.000000	87.426013
1178.000000	87.446628
1177.000000	87.483531
1176.000000	87.521364
1175.000000	87.541867
1174.000000	87.586162
1173.000000	87.604987
1172.000000	87.606066
1171.000000	87.642974
1170.000000	87.647902
1169.000000	87.699430
1168.000000	87.736746
1167.000000	87.780969
1166.000000	87.784842
1165.000000	87.827221
1164.000000	87.830447
1163.000000	87.879286
1162.000000	87.894883
1161.000000	87.835942
1160.000000	87.985524
1159.000000	88.026275
1158.000000	88.044395
1157.000000	88.084565
1156.000000	88.105194
1155.000000	88.124912
1154.000000	88.138480
1153.000000	88.161185
1152.000000	88.151844
1151.000000	88.236151
1150.000000	88.253072
1149.000000	88.261174
1148.000000	88.275733
1147.000000	88.303135
1146.000000	88.332881
1145.000000	88.363257
1144.000000	88.366447
1143.000000	88.381429
1142.000000	88.398551
1141.000000	88.447529
1140.000000	88.434229
1139.000000	88.350685
1138.000000	88.361837
1137.000000	88.512187
1136.000000	88.500159
1135.000000	88.547364
1134.000000	88.553527
1133.000000	88.572152
1132.000000	88.575155
1131.000000	88.612637
1130.000000	88.624489
1129.000000	88.529406
1128.000000	88.540922
1127.000000	88.679222
1126.000000	88.673312
1125.000000	88.694285
1124.000000	88.674212
1123.000000	88.703285
1122.000000	88.688874
1121.000000	88.702838
1120.000000	88.679081
1119.000000	88.696749
1118.000000	88.703107
1117.000000	88.717012
1116.000000	88.726604
1115.000000	88.725744
1114.000000	88.721314
1113.000000	88.714510
1112.000000	88.713213
1111.000000	88.704519
1110.000000	88.705541
1109.000000	88.698906
1108.000000	88.696250
1107.000000	88.713167
1106.000000	88.702534
1105.000000	88.695946
1104.000000	88.659157
1103.000000	88.657252
1102.000000	88.543561
1101.000000	88.549632
1100.000000	88.546590
1099.000000	88.625715
1098.000000	88.630845
1097.000000	88.619156
1096.000000	88.607460
1095.000000	88.577219
1094.000000	88.476806
1093.000000	88.477989
1092.000000	88.581285
1091.000000	88.552428
1090.000000	88.544161
1089.000000	88.536589
1088.000000	88.446009
1087.000000	88.298381
1086.000000	88.299935
1085.000000	88.388455
1084.000000	88.370755
1083.000000	88.361889
1082.000000	88.316962
1081.000000	88.199461
1080.000000	88.206447
1079.000000	88.303413
1078.000000	88.265698
1077.000000	88.251615
1076.000000	88.185383
1075.000000	88.065495
1074.000000	88.061673
1073.000000	88.106285
1072.000000	88.086908
1071.000000	88.077161
1070.000000	88.010741
1069.000000	87.900148
1068.000000	87.872289
1067.000000	87.884636
1066.000000	87.947393
1065.000000	87.915750
1064.000000	87.896693
1063.000000	87.846424
1062.000000	87.700791
1061.000000	87.669612
1060.000000	87.679558
1059.000000	87.771329
1058.000000	87.737378
1057.000000	87.666996
1056.000000	87.531460
1055.000000	87.567300
1054.000000	87.655563
1053.000000	87.582672
1052.000000	87.444062
1051.000000	87.415814
1050.000000	87.428162
1049.000000	87.530553
1048.000000	87.465897
1047.000000	87.342367
1046.000000	87.373979
1045.000000	87.483302
1044.000000	87.388771
1043.000000	87.245989
1042.000000	87.277921
1041.000000	87.355277
1040.000000	87.306473
1039.000000	87.212952
1038.000000	87.237675
1037.000000	87.247674
1036.000000	87.114152
1035.000000	87.175539
1034.000000	87.276540
1033.000000	87.215126
1032.000000	87.121673
1031.000000	87.104901
1030.000000	87.053505
1029.000000	87.062889
1028.000000	87.135884
1027.000000	87.176632
1026.000000	87.076455
1025.000000	87.061836
1024.000000	87.031531
1023.000000	87.099085
1022.000000	87.221679
1021.000000	87.153461
1020.000000	87.039537
1019.000000	86.949933
1018.000000	86.925092
1017.000000	87.124784
1016.000000	87.265760
1015.000000	87.199110
1014.000000	87.001003
1013.000000	86.994490
1012.000000	87.109683
1011.000000	87.199410
1010.000000	87.243645
1009.000000	87.063361
1008.000000	87.051799
1007.000000	87.192709
1006.000000	87.138249
1005.000000	87.155990
1004.000000	87.373803
1003.000000	87.423960
1002.000000	87.286243
1001.000000	87.307186
1000.000000	87.423672
999.000000	87.463406
998.000000	87.448209
997.000000	87.507891
996.000000	87.621019
995.000000	87.642993
994.000000	87.754047
993.000000	87.953256
992.000000	88.108399
991.000000	88.215202
990.000000	88.265641
989.000000	88.285782
988.000000	88.321622
987.000000	88.347764
986.000000	88.382505
985.000000	88.421780
984.000000	88.455871
983.000000	88.472301
982.000000	88.514720
981.000000	88.573257
980.000000	88.615634
979.000000	88.643646
978.000000	88.666125
977.000000	88.702134
976.000000	88.745190
975.000000	88.775066
974.000000	88.812897
973.000000	88.832952
972.000000	88.873719
971.000000	88.911397
970.000000	88.941326
969.000000	88.962110
968.000000	88.979322
967.000000	89.015779
966.000000	89.061291
965.000000	89.082991
964.000000	89.114740
963.000000	89.142367
962.000000	89.172748
961.000000	89.190790
960.000000	89.215384
959.000000	89.227150
958.000000	89.240154
957.000000	89.258867
956.000000	89.284457
955.000000	89.316427
954.000000	89.333482
953.000000	89.345844
952.000000	89.363289
951.000000	89.384766
950.000000	89.395703
949.000000	89.398307
948.000000	89.409261
947.000000	89.418829
946.000000	89.424663
945.000000	89.438427
944.000000	89.467259
943.000000	89.443192
942.000000	89.453433
941.000000	89.451492
940.000000	89.484209
939.000000	89.464982
938.000000	89.446669
937.000000	89.435017
936.000000	89.434714
935.000000	89.408019
934.000000	89.414868
933.000000	89.394735
932.000000	89.394324
931.000000	89.348191
930.000000	89.320476
929.000000	89.294869
928.000000	89.316287
927.000000	89.266042
926.000000	89.270344
925.000000	89.253012
924.000000	89.228185
923.000000	89.196206
922.000000	89.160755
921.000000	89.122818
920.000000	89.120554
919.000000	89.092045
918.000000	89.089022
917.000000	89.025427
916.000000	88.996622
915.000000	88.946844
914.000000	88.933161
913.000000	88.893094
912.000000	88.922955
911.000000	88.845720
910.000000	88.827424
909.000000	88.782933
908.000000	88.734942
907.000000	88.700220
906.000000	88.702234
905.000000	88.619090
904.000000	88.593142
903.000000	88.568672
902.000000	88.549067
901.000000	88.451906
900.000000	88.512311
899.000000	88.416071
898.000000	88.456880
897.000000	88.423065
896.000000	88.304551
895.000000	88.285249
894.000000	88.289649
893.000000	88.179894
892.000000	88.260140
891.000000	88.143529
890.000000	88.188518
889.000000	88.135171
888.000000	88.075275
887.000000	88.047997
886.000000	88.070299
885.000000	88.015782
884.000000	88.028068
883.000000	87.942109
882.000000	88.011485
881.000000	87.894993
880.000000	87.913878
879.000000	87.947927
878.000000	87.998929
877.000000	87.953447
876.000000	87.895393
875.000000	87.916740
874.000000	87.939333
873.000000	87.886051
872.000000	87.937336
871.000000	87.833575
870.000000	87.925287
869.000000	87.877613
868.000000	87.894518
867.000000	87.870717
866.000000	88.006024
865.000000	87.850165
864.000000	87.974466
863.000000	88.091499
862.000000	88.067323
861.000000	87.978782
860.000000	86.976200
859.000000	87.208657
858.000000	87.400690
857.000000	87.921329
856.000000	87.866695
855.000000	88.072634
854.000000	87.751526
853.000000	87.597998
852.000000	88.032989
851.000000	88.014582
850.000000	87.629624
849.000000	87.347892
848.000000	88.195351
847.000000	88.224126
846.000000	87.685083
845.000000	87.938131
844.000000	88.086736
843.000000	88.307357
842.000000	87.955242
841.000000	88.153452
840.000000	88.249838
839.000000	88.251997
838.000000	88.109120
837.000000	88.159948
836.000000	88.593275
835.000000	88.556012
834.000000	88.464578
833.000000	88.534434
832.000000	88.397915
831.000000	88.516742
830.000000	88.390911
829.000000	88.560725
828.000000	88.666799
827.000000	88.643541
826.000000	88.753728
825.000000	88.686298
824.000000	88.820941
823.000000	88.713153
822.000000	88.409909
821.000000	88.461535
820.000000	88.589591
819.000000	88.864018
818.000000	88.708908
817.000000	88.696573
816.000000	88.804444
815.000000	88.848510
814.000000	88.622968
813.000000	88.812077
812.000000	88.865541
811.000000	88.824981
810.000000	88.708519
809.000000	88.807554
808.000000	88.838026
807.000000	88.715760
806.000000	88.835411
805.000000	88.799129
804.000000	88.575513
803.000000	88.573717
802.000000	88.645579
801.000000	88.606199
800.000000	88.709658
799.000000	88.657000
798.000000	88.501760
797.000000	88.444932
796.000000	88.457527
795.000000	88.299116
794.000000	88.129001
793.000000	88.203822
792.000000	88.107962
791.000000	88.118620
790.000000	88.065299
789.000000	87.971028
788.000000	87.818058
787.000000	87.801650
786.000000	87.812729
785.000000	87.625676
784.000000	87.728984
783.000000	87.798575
782.000000	87.745190
781.000000	87.495761
780.000000	87.493649
779.000000	87.396946
778.000000	87.438991
777.000000	87.245851
776.000000	87.190544
775.000000	87.246341
774.000000	87.207617
773.000000	87.108880
772.000000	87.031457
771.000000	86.988323
770.000000	86.816844
769.000000	86.948150
768.000000	87.046682
767.000000	87.091807
766.000000	86.945977
765.000000	86.895959
764.000000	86.836795
763.000000	86.872530
762.000000	86.934508
761.000000	86.936414
760.000000	86.900479
759.000000	86.796305
758.000000	86.761358
757.000000	86.805133
756.000000	86.872343
755.000000	86.945320
754.000000	86.962233
753.000000	86.905095
752.000000	86.948327
751.000000	87.032677
750.000000	87.068579
749.000000	87.101621
748.000000	87.015625
747.000000	87.128807
746.000000	87.292829
745.000000	87.230844
744.000000	87.201105
743.000000	87.241190
742.000000	87.298823
741.000000	87.346735
740.000000	87.377854
739.000000	87.418359
738.000000	87.481786
737.000000	87.506409
736.000000	87.564028
735.000000	87.692057
734.000000	87.719262
733.000000	87.729722
732.000000	87.783382
731.000000	87.784458
730.000000	87.820181
729.000000	87.876943
728.000000	87.901745
727.000000	87.902501
726.000000	87.989214
725.000000	88.043154
724.000000	87.998860
723.000000	87.979316
722.000000	87.929513
721.000000	87.918407
720.000000	87.914067
719.000000	87.949663
718.000000	87.942119
717.000000	87.849440
716.000000	87.838880
715.000000	87.923911
714.000000	87.889031
713.000000	87.813486
712.000000	87.722275
711.000000	87.662098
710.000000	87.650364
709.000000	87.616829
708.000000	87.579792
707.000000	87.434878
706.000000	87.298555
705.000000	87.215955
704.000000	87.173695
703.000000	87.112822
702.000000	87.055949
701.000000	86.988558
700.000000	86.957194
699.000000	86.895427
698.000000	86.787227
697.000000	86.777544
696.000000	86.704129
695.000000	86.560048
694.000000	86.447636
693.000000	86.405419
692.000000	86.347773
691.000000	86.244081
690.000000	86.101120
689.000000	86.064685
688.000000	86.083907
687.000000	85.982441
686.000000	85.914426
685.000000	85.878585
684.000000	85.878600
683.000000	85.853924
682.000000	85.797087
681.000000	85.672463
680.000000	85.660085
679.000000	85.653531
678.000000	85.630731
677.000000	85.591395
676.000000	85.610564
675.000000	85.689331
674.000000	85.732697
673.000000	85.675004
672.000000	85.672221
671.000000	85.747319
670.000000	85.756304
669.000000	85.734554
668.000000	85.781477
667.000000	85.818401
666.000000	85.835577
665.000000	85.935914
664.000000	85.992604
663.000000	85.988408
662.000000	86.005750
661.000000	86.062326
660.000000	86.048017
659.000000	86.086805
658.000000	86.127353
657.000000	86.168795
656.000000	86.214759
655.000000	86.285873
654.000000	86.336052
653.000000	86.299417
652.000000	86.311581
651.000000	86.363574
650.000000	86.399104
649.000000	86.372598
648.000000	86.367477
647.000000	86.387208
646.000000	86.358719
645.000000	86.265820
644.000000	86.193964
643.000000	86.195339
642.000000	86.156829
641.000000	86.112377
640.000000	86.062929
639.000000	85.988647
638.000000	85.854848
637.000000	85.814177
636.000000	85.750633
635.000000	85.673982
634.000000	85.678699
633.000000	85.617233
632.000000	85.449544
631.000000	85.399828
630.000000	85.320664
629.000000	85.235102
628.000000	85.090969
627.000000	84.999102
626.000000	85.039563
625.000000	84.912891
624.000000	84.714316
623.000000	84.645644
622.000000	84.599317
621.000000	84.594782
620.000000	84.596726
619.000000	84.431081
618.000000	84.413380
617.000000	84.336548
616.000000	84.318015
615.000000	84.279632
614.000000	84.285690
613.000000	84.251638
612.000000	84.098510
611.000000	84.074207
610.000000	84.052182
609.000000	84.041794
608.000000	83.985264
607.000000	84.078496
606.000000	84.081090
605.000000	84.088439
604.000000	84.142577
603.000000	84.183577
602.000000	84.176522
601.000000	84.174140
600.000000	84.323500
599.000000	84.301787
598.000000	84.368152
597.000000	84.310682
596.000000	84.428125
595.000000	84.399433
594.000000	84.467788
593.000000	84.409493
592.000000	84.445391
591.000000	84.364861
590.000000	84.418790
589.000000	84.361235
588.000000	84.298744
587.000000	84.270882
586.000000	84.258176
585.000000	84.163583
584.000000	84.148870
583.000000	84.010166
582.000000	83.886582
581.000000	83.949299
580.000000	83.801793
579.000000	83.732143
578.000000	83.680920
577.000000	83.539520
576.000000	83.421892
575.000000	83.384789
574.000000	83.274405
573.000000	83.224371
572.000000	83.049828
571.000000	83.073017
570.000000	82.856457
569.000000	82.837484
568.000000	82.780214
567.000000	82.756590
566.000000	82.684850
565.000000	82.557518
564.000000	82.579303
563.000000	82.609797
562.000000	82.612266
561.000000	82.690365
560.000000	82.659791
559.000000	82.724798
558.000000	82.662030
557.000000	82.732225
556.000000	82.676166
555.000000	82.756610
554.000000	82.754991
553.000000	82.855481
552.000000	82.864544
551.000000	82.939826
550.000000	82.935368
549.000000	83.052521
548.000000	83.024842
547.000000	83.174346
546.000000	83.241334
545.000000	83.177404
544.000000	83.199030
543.000000	83.143423
542.000000	83.117667
541.000000	83.064815
540.000000	83.003332
539.000000	82.941323
538.000000	82.880928
537.000000	82.762563
536.000000	82.681944
535.000000	82.585175
534.000000	82.441046
533.000000	82.341475
532.000000	82.186372
531.000000	82.041155
530.000000	81.936584
529.000000	81.826250
528.000000	81.763595
527.000000	81.631373
526.000000	81.525960
525.000000	81.533957
524.000000	81.457683
523.000000	81.399669
522.000000	81.332996
521.000000	81.268222
520.000000	81.262001
519.000000	81.238116
518.000000	81.241197
517.000000	81.249353
516.000000	81.271708
515.000000	81.352354
514.000000	81.313016
513.000000	81.349998
512.000000	81.363890
511.000000	81.396430
510.000000	81.391422
509.000000	81.433808
508.000000	81.504585
507.000000	81.455861
506.000000	81.399869
505.000000	81.407151
504.000000	81.403031
503.000000	81.341821
502.000000	81.230454
501.000000	81.161090
500.000000	81.076934
499.000000	81.013207
498.000000	80.877169
497.000000	80.809977
496.000000	80.718775
495.000000	80.618719
494.000000	80.535172
493.000000	80.443449
492.000000	80.335523
491.000000	80.293738
490.000000	80.207768
489.000000	80.170269
488.000000	80.170516
487.000000	80.143355
486.000000	80.130297
485.000000	80.099476
484.000000	80.112101
483.000000	80.246578
482.000000	80.284977
481.000000	80.276948
480.000000	80.237943
479.000000	80.166724
478.000000	80.125555
477.000000	80.123252
476.000000	80.157904
475.000000	80.108605
474.000000	80.070747
473.000000	79.970623
472.000000	79.836833
471.000000	79.675374
470.000000	79.532979
469.000000	79.428414
468.000000	79.267683
467.000000	79.076166
466.000000	78.860299
465.000000	78.754948
464.000000	78.653660
463.000000	78.483345
462.000000	78.316613
461.000000	78.264356
460.000000	78.194729
459.000000	78.128182
458.000000	78.037221
457.000000	77.977870
456.000000	77.963714
455.000000	78.026426
454.000000	78.012466
453.000000	77.930599
452.000000	77.879863
451.000000	77.880268
450.000000	77.791623
449.000000	77.763305
448.000000	77.590675
447.000000	77.427986
446.000000	77.300874
445.000000	77.145961
444.000000	76.947970
443.000000	76.715582
442.000000	76.419535
441.000000	76.131485
440.000000	75.905603
439.000000	75.662550
438.000000	75.423532
437.000000	75.192426
436.000000	74.998020
435.000000	74.801595
434.000000	74.585346
433.000000	74.371156
432.000000	74.073112
431.000000	73.709920
430.000000	73.366438
429.000000	72.959518
428.000000	72.449280
427.000000	71.818085
426.000000	71.135716
425.000000	70.366011
424.000000	69.576811
423.000000	68.767005
422.000000	67.827607
421.000000	66.891132
420.000000	65.954579
419.000000	65.029723
418.000000	64.089362
417.000000	63.169215
416.000000	62.292946
415.000000	61.433543
414.000000	60.670887
413.000000	59.998727
412.000000	59.447131
411.000000	59.061201
410.000000	58.752891
409.000000	58.579018
408.000000	58.500893
407.000000	58.493224
406.000000	58.569809
405.000000	58.747003
404.000000	58.962420
403.000000	59.186657
402.000000	59.464990
401.000000	59.842134
400.000000	60.231372
399.000000	60.574942
398.000000	60.919816
397.000000	61.273447
396.000000	61.625184
395.000000	61.925700
394.000000	62.302555
393.000000	62.612715
392.000000	62.866990
391.000000	63.180142
390.000000	63.537563
389.000000	63.864697
388.000000	64.141960
387.000000	64.349338
386.000000	64.657090
385.000000	64.989740
384.000000	65.242200
383.000000	65.518540
382.000000	65.870564
381.000000	66.206360
380.000000	66.530134
379.000000	67.364625
378.000000	67.416469
377.000000	67.976328
376.000000	68.356939
375.000000	69.092209
374.000000	70.135891
373.000000	70.952826
372.000000	71.874924
371.000000	72.892900
370.000000	74.052444
369.000000	75.235833
368.000000	76.549118
367.000000	77.904730
366.000000	78.668143
365.000000	79.655674
364.000000	80.785367
363.000000	81.924524
362.000000	82.339227
361.000000	83.601255
360.000000	84.471998
359.000000	85.446477
358.000000	86.006496
357.000000	86.846620
356.000000	87.117285
355.000000	87.927761
354.000000	88.806599
353.000000	89.764488
352.000000	90.852192
351.000000	90.748241
350.000000	92.125435
349.000000	92.737522
348.000000	93.843030
347.000000	94.378402
346.000000	94.777103
345.000000	95.831287
344.000000	95.435194
343.000000	95.160928
342.000000	95.688231
341.000000	95.582228
340.000000	96.433202
339.000000	95.412530
338.000000	95.482522
337.000000	95.093777
336.000000	95.549941
335.000000	95.119804
334.000000	94.637862
333.000000	93.976087
332.000000	94.049294
331.000000	94.780956
330.000000	94.402368
329.000000	93.432271
328.000000	93.691882
327.000000	93.633481
326.000000	93.269899
325.000000	93.359746
324.000000	93.646776
323.000000	93.631757
322.000000	93.744158
321.000000	92.857921
320.000000	93.392450
319.000000	93.429789
318.000000	93.310006
317.000000	93.601553
316.000000	93.547394
315.000000	93.384308
314.000000	93.657411
313.000000	93.716008
312.000000	93.879783
311.000000	94.023670
310.000000	94.280195
309.000000	94.181424
308.000000	94.781875
307.000000	95.629391
306.000000	96.535544
305.000000	97.037680
304.000000	97.691827
303.000000	98.469390
302.000000	99.007467
301.000000	99.184241
300.000000	99.686317
299.000000	100.159828
298.000000	100.855719
297.000000	101.638742
296.000000	102.212520
295.000000	103.108762
294.000000	103.627645
293.000000	104.530585
292.000000	105.627185
291.000000	106.473088
290.000000	107.682145
289.000000	108.742696
288.000000	109.594701
287.000000	110.708737
286.000000	111.733610
285.000000	112.591862
284.000000	114.052490
283.000000	114.688146
282.000000	115.351174
281.000000	115.647045
280.000000	116.506998
279.000000	117.009901
278.000000	117.560364
277.000000	117.815613
276.000000	117.908537
275.000000	118.014026
274.000000	118.448224
273.000000	118.730752
272.000000	118.935892
271.000000	119.136167
270.000000	119.379363
269.000000	119.474254
268.000000	119.885867
267.000000	120.488688
266.000000	120.964066
265.000000	121.923473
264.000000	123.089951
263.000000	124.000962
262.000000	125.372087
261.000000	126.595983
260.000000	127.939553
259.000000	129.341995
258.000000	130.582735
257.000000	132.167329
256.000000	133.616173
255.000000	135.503352
254.000000	137.131439
253.000000	138.923025
252.000000	141.108416
251.000000	143.323403
250.000000	145.734579
249.000000	147.694473
248.000000	149.742081
247.000000	151.425330
246.000000	152.625740
245.000000	154.874384
244.000000	157.105763
243.000000	159.456428
242.000000	161.302273
241.000000	165.096730
240.000000	167.790522
239.000000	170.186941
238.000000	173.607817
237.000000	177.348791
236.000000	181.826694
235.000000	186.451407
234.000000	191.380454
233.000000	195.777772
232.000000	199.711940
231.000000	203.285044
230.000000	206.958436
229.000000	211.425199
228.000000	214.782663
227.000000	219.152541
226.000000	223.593835
225.000000	227.352914
224.000000	231.166179
223.000000	234.740603
222.000000	238.428988
221.000000	242.343534
220.000000	245.676165
219.000000	248.309885
218.000000	251.424016
217.000000	255.179613
216.000000	258.281165
215.000000	261.390364
214.000000	264.633974
213.000000	269.130858
212.000000	274.068917
211.000000	279.761418
210.000000	285.474704
209.000000	292.052721
208.000000	299.896217
207.000000	309.253264
206.000000	318.955575
205.000000	328.921692
204.000000	342.327041
203.000000	355.851929
202.000000	369.677734
201.000000	384.877595
200.000000	401.116702
